Time (s),Shift (nm)
0.0,0.0
0.1999999999999886,-0.004987
0.4000000000000341,-0.004923
0.6000000000000227,-0.0014799999999999
0.8000000000000114,0.000529
1.0,0.001451
1.1999999999999886,0.002823
1.400000000000034,0.004474
1.6000000000000227,0.002813
1.8000000000000114,0.003356
2.0,0.005138
2.1999999999999886,0.007844
2.400000000000034,0.008827
2.6000000000000227,0.0104219999999999
2.800000000000012,0.007813
3.0,0.004259
3.1999999999999886,0.0010479999999999
3.400000000000034,-0.001199
3.6000000000000227,-0.001008
3.8000000000000114,0.001502
4.0,0.0052599999999999
4.199999999999989,0.00752
4.400000000000034,0.008906
4.600000000000023,0.007184
4.800000000000011,0.004941
5.0,0.002169
5.199999999999989,0.0021349999999999
5.400000000000034,0.00413
5.600000000000023,0.006506
5.800000000000011,0.0106769999999999
6.0,0.013713
6.199999999999989,0.015332
6.400000000000034,0.015874
6.600000000000023,0.016576
6.800000000000011,0.014919
7.0,0.012328
7.199999999999989,0.010732
7.400000000000034,0.00794
7.600000000000023,0.005746
7.800000000000011,0.002844
8.0,0.003093
8.199999999999989,0.004055
8.400000000000034,0.005408
8.600000000000023,0.004247
8.800000000000011,0.0026209999999999
9.0,0.003211
9.199999999999989,0.0053469999999999
9.400000000000034,0.008052
9.600000000000025,0.0109569999999999
9.800000000000011,0.0136789999999999
10.0,0.0133579999999999
10.199999999999989,0.012323
10.400000000000034,0.00983
10.600000000000025,0.009458
10.800000000000011,0.0118449999999999
11.0,0.014232
11.199999999999989,0.015207
11.400000000000034,0.017191
11.600000000000025,0.0190009999999999
11.800000000000011,0.0208829999999999
12.0,0.0209099999999999
12.199999999999989,0.020081
12.400000000000034,0.018326
12.600000000000025,0.0165609999999999
12.800000000000011,0.013888
13.0,0.011107
13.199999999999989,0.008865
13.400000000000034,0.007618
13.600000000000025,0.006896
13.800000000000011,0.007221
14.0,0.0097039999999999
14.199999999999989,0.009973
14.400000000000034,0.00929
14.600000000000025,0.0070299999999999
14.800000000000011,0.003551
15.0,0.001444
15.199999999999989,0.0025109999999999
15.400000000000034,0.005823
15.600000000000025,0.009134
15.800000000000011,0.011589
16.0,0.012216
16.19999999999999,0.0134589999999999
16.400000000000034,0.014655
16.600000000000023,0.014765
16.80000000000001,0.016637
17.0,0.015823
17.19999999999999,0.013475
17.400000000000034,0.00945
17.600000000000023,0.00919
17.80000000000001,0.0081789999999999
18.0,0.0070209999999999
18.19999999999999,0.006406
18.400000000000038,0.0055919999999999
18.600000000000023,0.0042019999999999
18.80000000000001,0.0045189999999999
19.0,0.006747
19.19999999999999,0.0075419999999999
19.400000000000038,0.010004
19.600000000000023,0.012543
19.80000000000001,0.013381
20.0,0.015554
20.19999999999999,0.016722
20.400000000000038,0.017076
20.600000000000023,0.015143
20.80000000000001,0.013095
21.0,0.008492
21.19999999999999,0.004614
21.400000000000038,0.00311
21.600000000000023,0.002387
21.80000000000001,0.002721
22.0,0.004108
22.19999999999999,0.0071579999999999
22.400000000000038,0.0079179999999999
22.600000000000023,0.008774
22.80000000000001,0.0082079999999999
23.0,0.009888
23.19999999999999,0.011856
23.400000000000038,0.01539
23.600000000000023,0.017496
23.80000000000001,0.020073
24.0,0.022035
24.19999999999999,0.0216149999999999
24.400000000000038,0.019564
24.600000000000023,0.018662
24.80000000000001,0.018178
25.0,0.017452
25.19999999999999,0.017492
25.400000000000038,0.0153699999999999
25.600000000000023,0.0157329999999999
25.80000000000001,0.015973
26.0,0.014272
26.19999999999999,0.0136399999999999
26.400000000000038,0.015354
26.600000000000023,0.01334
26.80000000000001,0.0103119999999999
27.0,0.008819
27.19999999999999,0.0063639999999999
27.400000000000038,0.004371
27.600000000000023,0.002331
27.80000000000001,0.001964
28.0,0.0031499999999999
28.19999999999999,0.0070899999999999
28.400000000000038,0.0087579999999999
28.600000000000023,0.011197
28.80000000000001,0.0121919999999999
29.0,0.013315
29.19999999999999,0.0116749999999999
29.400000000000038,0.010491
29.600000000000023,0.0102929999999999
29.80000000000001,0.011614
30.0,0.0122639999999999
30.19999999999999,0.0119319999999999
30.400000000000038,0.01262
30.600000000000023,0.01167
30.80000000000001,0.009417
31.0,0.0046599999999999
31.19999999999999,0.0028279999999999
31.400000000000038,0.0024089999999999
31.600000000000023,0.004769
31.80000000000001,0.009284
32.0,0.014439
32.19999999999999,0.0173599999999999
32.400000000000034,0.016596
32.60000000000002,0.0155319999999999
32.80000000000001,0.011971
33.0,0.01006
33.19999999999999,0.008307
33.400000000000034,0.008992
33.60000000000002,0.008116
33.80000000000001,0.0072809999999999
34.0,0.0061729999999999
34.19999999999999,0.0057409999999999
34.400000000000034,0.0044259999999999
34.60000000000002,0.003813
34.80000000000001,0.004676
35.0,0.003833
35.19999999999999,0.004906
35.400000000000034,0.006196
35.60000000000002,0.008199
35.80000000000001,0.007985
36.0,0.0100339999999999
36.19999999999999,0.010914
36.400000000000034,0.0129989999999999
36.60000000000002,0.013021
36.80000000000001,0.015369
37.0,0.014674
37.19999999999999,0.014269
37.400000000000034,0.012711
37.60000000000002,0.0127099999999999
37.80000000000001,0.012039
38.0,0.015874
38.19999999999999,0.01655
38.400000000000034,0.016886
38.60000000000002,0.016185
38.80000000000001,0.016679
39.0,0.014405
39.19999999999999,0.016125
39.400000000000034,0.0182479999999999
39.60000000000002,0.021037
39.80000000000001,0.0211089999999999
40.0,0.020017
40.19999999999999,0.0133949999999999
40.400000000000034,0.0068079999999999
40.60000000000002,0.002406
40.80000000000001,0.000948
41.0,0.001031
41.19999999999999,0.006066
41.400000000000034,0.010107
41.60000000000002,0.011823
41.80000000000001,0.0112349999999999
42.0,0.011363
42.19999999999999,0.007527
42.400000000000034,0.005489
42.60000000000002,0.004224
42.80000000000001,0.005466
43.0,0.004898
43.19999999999999,0.007072
43.400000000000034,0.00718
43.60000000000002,0.0059089999999999
43.80000000000001,0.004194
44.0,0.003722
44.19999999999999,0.00317
44.400000000000034,0.0049529999999999
44.60000000000002,0.00618
44.80000000000001,0.005284
45.0,0.0041189999999999
45.19999999999999,0.0040879999999999
45.400000000000034,0.0024109999999999
45.60000000000002,0.0020149999999999
45.80000000000001,0.002856
46.0,0.005835
46.19999999999999,0.008958
46.400000000000034,0.011093
46.60000000000002,0.012153
46.80000000000001,0.011046
47.0,0.0089489999999999
47.19999999999999,0.006823
47.400000000000034,0.006084
47.60000000000002,0.0047869999999999
47.80000000000001,0.0049549999999999
48.0,0.003835
48.19999999999999,0.000927
48.400000000000034,-8.700000000000374e-05
48.60000000000002,0.0014859999999999
48.80000000000001,0.00273
49.0,0.0049029999999999
49.19999999999999,0.0065
49.400000000000034,0.0070109999999999
49.60000000000002,0.004437
49.80000000000001,0.004026
50.0,0.003651
50.19999999999999,0.004225
50.400000000000034,0.00478
50.60000000000002,0.006747
50.80000000000001,0.0076749999999999
51.0,0.0085899999999999
51.19999999999999,0.009079
51.400000000000034,0.0076999999999999
51.60000000000002,0.0055189999999999
51.80000000000001,0.003904
52.0,0.001149
52.19999999999999,-0.001379
52.400000000000034,-0.0009139999999999
52.60000000000002,0.000373
52.80000000000001,-6.80000000000125e-05
53.0,-0.001263
53.19999999999999,-0.0018509999999999
53.400000000000034,-0.003595
53.60000000000002,-0.0044939999999999
53.80000000000001,-0.002763
54.0,-0.0005709999999999
54.19999999999999,0.0015439999999999
54.400000000000034,0.0041249999999999
54.60000000000002,0.005523
54.80000000000001,0.005385
55.0,0.0056519999999999
55.19999999999999,0.003821
55.400000000000034,0.002599
55.60000000000002,0.003792
55.80000000000001,0.004155
56.0,0.0033259999999999
56.19999999999999,0.004161
56.400000000000034,0.00562
56.60000000000002,0.005296
56.80000000000001,0.004637
57.0,0.005751
57.19999999999999,0.0079859999999999
57.400000000000034,0.0073489999999999
57.60000000000002,0.0056579999999999
57.80000000000001,0.005292
58.0,0.007078
58.19999999999999,0.008609
58.400000000000034,0.007722
58.60000000000002,0.009261
58.80000000000001,0.0109549999999999
59.0,0.0090839999999999
59.19999999999999,0.0056539999999999
59.400000000000034,0.0058179999999999
59.60000000000002,0.0044859999999999
59.80000000000001,0.0036789999999999
60.0,0.003971
60.19999999999999,0.005906
60.400000000000034,0.0067949999999999
60.60000000000002,0.007638
60.80000000000001,0.008838
61.0,0.0108119999999999
61.19999999999999,0.010066
61.400000000000034,0.009244
61.60000000000002,0.0101749999999999
61.80000000000001,0.0090029999999999
62.00000000000006,0.007522
62.19999999999999,0.007245
62.400000000000034,0.008421
62.599999999999966,0.0071789999999999
62.80000000000001,0.007884
63.00000000000006,0.0066039999999999
63.19999999999999,0.0043739999999999
63.400000000000034,0.002823
63.599999999999966,0.002582
63.80000000000001,0.004306
64.00000000000006,0.005387
64.19999999999999,0.007136
64.40000000000003,0.006344
64.59999999999997,0.007531
64.80000000000001,0.005391
65.00000000000006,0.0053949999999999
65.19999999999999,0.0081149999999999
65.40000000000003,0.011112
65.59999999999997,0.011969
65.80000000000001,0.012498
66.00000000000006,0.012967
66.19999999999999,0.011809
66.40000000000003,0.0118889999999999
66.59999999999997,0.0092059999999999
66.80000000000001,0.005218
67.00000000000006,0.001165
67.19999999999999,0.000462
67.40000000000003,0.0004529999999999
67.59999999999997,0.00206
67.80000000000001,0.005271
68.00000000000006,0.008502
68.19999999999999,0.008859
68.40000000000003,0.009516
68.59999999999997,0.011549
68.80000000000001,0.0125839999999999
69.00000000000006,0.0140109999999999
69.19999999999999,0.0124469999999999
69.40000000000003,0.0084549999999999
69.59999999999997,0.0052719999999999
69.80000000000001,0.0035629999999999
70.00000000000006,0.002053
70.19999999999999,0.0037719999999999
70.40000000000003,0.005946
70.59999999999997,0.007719
70.80000000000001,0.0076169999999999
71.00000000000006,0.008971
71.19999999999999,0.0098449999999999
71.40000000000003,0.011004
71.59999999999997,0.0093619999999999
71.80000000000001,0.009954
72.00000000000006,0.011224
72.19999999999999,0.009778
72.40000000000003,0.0085109999999999
72.59999999999997,0.007999
72.80000000000001,0.006141
73.00000000000006,-0.0007759999999999
73.19999999999999,-0.0040399999999999
73.40000000000003,-0.0049679999999999
73.59999999999997,-0.0013889999999999
73.80000000000001,-0.0001539999999999
74.00000000000006,0.001727
74.19999999999999,0.002029
74.40000000000003,0.001039
74.59999999999997,-0.0032079999999999
74.80000000000001,-0.0035479999999999
75.00000000000006,-0.0015939999999999
75.19999999999999,0.002605
75.40000000000003,0.005064
75.59999999999997,0.008465
75.80000000000001,0.0103909999999999
76.00000000000006,0.009495
76.19999999999999,0.0062559999999999
76.40000000000003,0.00279
76.59999999999997,0.00079
76.80000000000001,-9.5999999999985e-05
77.00000000000006,-0.0005469999999999
77.19999999999999,0.000263
77.40000000000003,0.0027309999999999
77.59999999999997,0.003446
77.80000000000001,0.002421
78.00000000000006,0.004665
78.19999999999999,0.003888
78.40000000000003,0.002475
78.59999999999997,0.002361
78.80000000000001,0.0042989999999999
79.00000000000006,0.0028179999999999
79.19999999999999,0.003039
79.40000000000003,0.00518
79.59999999999997,0.0052929999999999
79.80000000000001,0.003755
80.00000000000006,0.0039259999999999
80.19999999999999,0.005774
80.40000000000003,0.0063139999999999
80.59999999999997,0.005554
80.80000000000001,0.006408
81.00000000000006,0.009464
81.19999999999999,0.0114549999999999
81.40000000000003,0.008529
81.59999999999997,0.0045359999999999
81.80000000000001,0.0008429999999999
82.00000000000006,-0.002639
82.19999999999999,-0.0078199999999999
82.40000000000003,-0.007386
82.59999999999997,-0.0036129999999999
82.80000000000001,-0.001388
83.00000000000006,-0.0015339999999999
83.19999999999999,-0.0032539999999999
83.40000000000003,-0.0055719999999999
83.59999999999997,-0.008145
83.80000000000001,-0.0074049999999999
84.00000000000006,-0.0080409999999999
84.19999999999999,-0.0045049999999999
84.40000000000003,-0.0005499999999999
84.59999999999997,0.004973
84.80000000000001,0.006886
85.00000000000006,0.0108369999999999
85.19999999999999,0.012467
85.40000000000003,0.012189
85.59999999999997,0.008564
85.80000000000001,0.006199
86.00000000000006,0.003613
86.19999999999999,0.002039
86.40000000000003,0.0021829999999999
86.59999999999997,0.003942
86.80000000000001,0.003738
87.00000000000006,0.0019799999999999
87.19999999999999,0.001422
87.40000000000003,0.0012889999999999
87.59999999999997,-0.000975
87.80000000000001,-0.0014949999999999
88.00000000000006,-0.0010749999999999
88.19999999999999,0.000389
88.40000000000003,0.001971
88.59999999999997,0.0038529999999999
88.80000000000001,0.005713
89.00000000000006,0.008162
89.19999999999999,0.008886
89.40000000000003,0.0077599999999999
89.59999999999997,0.0094609999999999
89.80000000000001,0.0118449999999999
90.00000000000006,0.013351
90.2,0.013382
90.40000000000003,0.011356
90.59999999999997,0.0087579999999999
90.8,0.005501
91.00000000000006,0.004309
91.2,0.0035089999999999
91.40000000000003,0.0068199999999999
91.59999999999997,0.00956
91.8,0.01116
92.00000000000006,0.0105149999999999
92.2,0.009994
92.40000000000003,0.0070939999999999
92.59999999999997,0.002249
92.8,-0.00262
93.00000000000006,-0.0036479999999999
93.2,-0.0036849999999999
93.40000000000003,-0.0035839999999999
93.59999999999997,-0.0006129999999999
93.8,0.001024
94.00000000000006,-0.0024469999999999
94.2,-0.0054899999999999
94.40000000000003,-0.004842
94.59999999999997,-0.004649
94.8,-0.0036329999999999
95.00000000000006,-0.001765
95.2,0.00286
95.40000000000003,0.006576
95.59999999999997,0.007875
95.8,0.0089529999999999
96.00000000000006,0.0151399999999999
96.2,0.019708
96.40000000000003,0.020128
96.59999999999997,0.021033
96.8,0.0220259999999999
97.00000000000006,0.019038
97.2,0.013523
97.40000000000003,0.00938
97.59999999999997,0.006086
97.8,0.003321
98.00000000000006,0.0002599999999999
98.2,-0.0004139999999999
98.40000000000003,-0.001236
98.59999999999997,-0.0021639999999999
98.8,-0.0021209999999999
99.00000000000006,-0.0013849999999999
99.2,-0.002767
99.40000000000003,-0.0015589999999999
99.59999999999997,0.00142
99.8,0.005105
100.00000000000006,0.006761
100.2,0.0060959999999999
100.40000000000003,0.005981
100.59999999999997,0.004752
100.8,0.00156
101.00000000000006,0.000556
101.2,0.0054239999999999
101.40000000000003,0.007833
101.59999999999997,0.009292
101.8,0.010143
102.00000000000006,0.011564
102.2,0.0109879999999999
102.40000000000003,0.0104
102.59999999999997,0.009798
102.8,0.0108719999999999
103.00000000000006,0.011338
103.2,0.0110319999999999
103.40000000000003,0.0091459999999999
103.59999999999997,0.0090609999999999
103.8,0.009745
104.00000000000006,0.0095569999999999
104.2,0.006418
104.40000000000003,0.0043239999999999
104.59999999999997,0.0016769999999999
104.8,-0.002489
105.00000000000006,-0.007012
105.2,-0.0074389999999999
105.40000000000003,-0.004977
105.59999999999997,-0.003975
105.8,-0.0038759999999999
106.00000000000006,-0.0029639999999999
106.2,-0.0037329999999999
106.40000000000003,-0.005371
106.59999999999997,-0.0060319999999999
106.8,-0.0038579999999999
107.00000000000006,-0.0029529999999999
107.2,-0.0008819999999999
107.40000000000003,0.0011769999999999
107.59999999999997,0.003085
107.8,0.0017639999999999
108.00000000000006,0.001491
108.2,-0.001871
108.40000000000003,-0.0051889999999999
108.59999999999997,-0.0065129999999999
108.8,-0.004531
109.00000000000006,-0.003732
109.2,-0.001931
109.40000000000003,-0.0024099999999999
109.59999999999997,-0.0029909999999999
109.8,-0.0012679999999999
110.00000000000006,0.002462
110.2,0.005684
110.40000000000003,0.0081229999999999
110.59999999999997,0.0082539999999999
110.8,0.004942
111.00000000000006,0.002968
111.2,0.0034259999999999
111.40000000000003,0.005531
111.59999999999997,0.005417
111.8,0.006979
112.00000000000006,0.0069919999999999
112.2,0.005728
112.40000000000003,0.003803
112.59999999999997,0.0062389999999999
112.8,0.006579
113.00000000000006,0.005572
113.2,0.002263
113.40000000000003,-0.000124
113.59999999999997,-0.0016629999999999
113.8,-0.0018119999999999
114.00000000000006,-0.0003569999999999
114.2,0.002445
114.40000000000003,0.0051479999999999
114.59999999999997,0.006854
114.8,0.0071499999999999
115.00000000000006,0.006549
115.2,0.0055589999999999
115.40000000000003,0.004419
115.59999999999997,0.000692
115.8,-0.0026539999999999
116.00000000000006,-0.0055009999999999
116.2,-0.0062669999999999
116.40000000000003,-0.0061209999999999
116.59999999999997,-0.00351
116.8,0.000172
117.00000000000006,0.00451
117.2,0.0086129999999999
117.40000000000003,0.011651
117.59999999999997,0.0124
117.8,0.0114759999999999
118.00000000000006,0.009048
118.2,0.0058449999999999
118.40000000000003,0.002489
118.59999999999997,-0.001035
118.8,-0.0034469999999999
119.00000000000006,-0.0039099999999999
119.2,-0.0025129999999999
119.40000000000003,-0.0022519999999999
119.59999999999997,7.40000000000185e-05
119.8,0.00059
120.00000000000006,-0.0018539999999999
120.2,-0.003346
120.40000000000003,-0.003234
120.59999999999997,-0.0020199999999999
120.8,-0.0012559999999999
121.00000000000006,0.00168
121.2,0.001422
121.40000000000003,0.00103
121.59999999999997,0.0007679999999999
121.8,0.0019649999999999
122.00000000000006,0.003134
122.2,0.004888
122.40000000000003,0.007039
122.59999999999997,0.008163
122.8,0.008165
123.00000000000006,0.006757
123.2,0.004107
123.40000000000003,0.00056
123.59999999999997,-0.000755
123.8,0.00101
124.00000000000006,0.0039569999999999
124.2,0.004813
124.40000000000003,0.007348
124.59999999999997,0.007734
124.8,0.007769
125.00000000000006,0.007647
125.2,0.0114759999999999
125.40000000000003,0.012077
125.59999999999997,0.0112329999999999
125.8,0.008203
126.00000000000006,0.00636
126.2,0.004948
126.40000000000003,0.005918
126.59999999999997,0.007496
126.8,0.007361
127.00000000000006,0.007359
127.2,0.0073159999999999
127.40000000000003,0.006429
127.59999999999997,0.003028
127.8,0.0025459999999999
128.00000000000006,0.001879
128.2,0.004798
128.40000000000003,0.0085459999999999
128.59999999999997,0.011798
128.8,0.0125569999999999
129.00000000000006,0.012786
129.2,0.011546
129.40000000000003,0.0091209999999999
129.59999999999997,0.008167
129.8,0.007997
130.00000000000006,0.007182
130.2,0.006381
130.40000000000003,0.004942
130.59999999999997,0.004746
130.8,0.0054799999999999
131.00000000000006,0.006437
131.2,0.0046809999999999
131.40000000000003,0.002628
131.59999999999997,-0.000539
131.8,-0.0031579999999999
132.00000000000006,-0.0053429999999999
132.2,-0.0053079999999999
132.40000000000003,-0.0038059999999999
132.59999999999997,0.000143
132.8,0.003049
133.00000000000006,0.004054
133.2,0.003283
133.40000000000003,0.003776
133.59999999999997,0.0053929999999999
133.8,0.00828
134.00000000000006,0.01096
134.2,0.0116089999999999
134.40000000000003,0.0102949999999999
134.59999999999997,0.008294
134.8,0.006848
135.00000000000006,0.006306
135.2,0.006525
135.40000000000003,0.006582
135.59999999999997,0.005991
135.8,0.005083
136.00000000000006,0.004557
136.2,0.004862
136.40000000000003,0.005808
136.59999999999997,0.0041269999999999
136.8,0.001222
137.00000000000006,-0.0007389999999999
137.2,-0.0018159999999999
137.40000000000003,-0.001361
137.59999999999997,-0.000568
137.8,0.002171
138.00000000000006,0.0054069999999999
138.2,0.008041
138.40000000000003,0.009894
138.59999999999997,0.011081
138.8,0.009525
139.00000000000006,0.004958
139.2,0.001642
139.40000000000003,-0.0021109999999999
139.59999999999997,-0.0026639999999999
139.8,-0.0007159999999999
140.00000000000006,0.002076
140.2,0.0029399999999999
140.40000000000003,0.002912
140.59999999999997,0.0030959999999999
140.8,0.001669
141.00000000000006,0.0027659999999999
141.2,0.003435
141.40000000000003,0.005026
141.59999999999997,0.003219
141.8,0.002364
142.00000000000006,-0.0009639999999999
142.2,-0.0025199999999999
142.40000000000003,-0.001651
142.59999999999997,0.000607
142.8,0.00208
143.00000000000006,0.0041869999999999
143.2,0.004707
143.40000000000003,0.002705
143.59999999999997,0.001804
143.8,0.000885
144.00000000000006,-0.000236
144.2,-0.0007039999999999
144.40000000000003,-0.0012539999999999
144.59999999999997,-0.0016669999999999
144.8,-0.0015589999999999
145.00000000000006,-0.0006359999999999
145.2,-0.000203
145.40000000000003,0.00229
145.59999999999997,0.0034339999999999
145.8,0.003417
146.00000000000006,0.003759
146.2,0.003586
146.40000000000003,0.001918
146.59999999999997,-0.003203
146.8,-0.006595
147.00000000000006,-0.0073519999999999
147.2,-0.0065239999999999
147.40000000000003,-0.0049219999999999
147.59999999999997,-0.002595
147.8,-0.0017949999999999
148.00000000000006,-0.0039509999999999
148.2,-0.003734
148.40000000000003,-0.0054429999999999
148.59999999999997,-0.004249
148.8,-0.0013759999999999
149.00000000000006,0.001682
149.2,0.0027889999999999
149.40000000000003,0.0019339999999999
149.59999999999997,0.000917
149.8,-3.100000000000325e-05
150.00000000000006,-0.000153
150.2,-0.003043
150.40000000000003,-0.004888
150.59999999999997,-0.006081
150.8,-0.0070209999999999
151.00000000000006,-0.008639
151.2,-0.007568
151.40000000000003,-0.004956
151.59999999999997,-0.0032439999999999
151.8,-0.003736
152.00000000000006,-0.0043949999999999
152.2,-0.0032019999999999
152.40000000000003,-0.0002599999999999
152.59999999999997,0.0015419999999999
152.8,0.002145
153.00000000000006,0.001195
153.2,-0.0021869999999999
153.40000000000003,-0.0050549999999999
153.59999999999997,-0.005
153.8,-0.001261
154.00000000000006,0.0023489999999999
154.2,0.0032849999999999
154.40000000000003,0.0014939999999999
154.59999999999997,-7.099999999998774e-05
154.8,-0.002809
155.00000000000006,-0.0030299999999999
155.2,-0.0022449999999999
155.40000000000003,6.0000000000004494e-05
155.59999999999997,0.001061
155.8,0.0012599999999999
156.00000000000006,-0.0016849999999999
156.2,-0.0028259999999999
156.40000000000003,-0.0024659999999999
156.59999999999997,-0.0016029999999999
156.8,0.000489
157.00000000000006,0.0006809999999999
157.2,0.0016079999999999
157.40000000000003,0.0007179999999999
157.59999999999997,-0.000323
157.8,-0.0020769999999999
158.00000000000006,-0.000977
158.2,-0.000373
158.40000000000003,0.0013299999999999
158.59999999999997,0.002068
158.8,0.0015189999999999
159.00000000000006,0.002128
159.2,0.0010399999999999
159.40000000000003,-5.899999999997574e-05
159.59999999999997,-0.0001519999999999
159.8,-8.999999999981245e-06
160.00000000000006,-0.000448
160.2,-7.00000000000145e-05
160.40000000000003,-0.0009709999999999
160.59999999999997,-0.0020649999999999
160.8,-0.00085
161.00000000000006,0.0024899999999999
161.2,0.006701
161.40000000000003,0.0091149999999999
161.59999999999997,0.008178
161.8,0.005611
162.00000000000006,0.0002969999999999
162.2,-0.0024859999999999
162.40000000000003,-0.0019119999999999
162.59999999999997,0.002101
162.8,0.005763
163.00000000000006,0.008996
163.2,0.009249
163.40000000000003,0.00718
163.59999999999997,0.006188
163.8,0.006387
164.00000000000006,0.008106
164.2,0.0093509999999999
164.40000000000003,0.0085839999999999
164.59999999999997,0.007456
164.8,0.008606
165.00000000000006,0.009436
165.2,0.0077269999999999
165.40000000000003,0.007558
165.59999999999997,0.007641
165.8,0.004718
166.00000000000006,0.001551
166.2,0.001956
166.40000000000003,0.00434
166.59999999999997,0.0036499999999999
166.8,0.001802
167.00000000000006,-0.0001999999999999
167.2,-0.0009469999999999
167.40000000000003,-0.0025229999999999
167.59999999999997,-0.0012459999999999
167.8,-0.000184
168.00000000000006,0.000117
168.2,-0.001703
168.40000000000003,-0.0020879999999999
168.59999999999997,-0.0001439999999999
168.8,0.004974
169.00000000000006,0.008761
169.2,0.010155
169.40000000000003,0.007967
169.59999999999997,0.00435
169.8,0.001082
170.00000000000006,0.000433
170.2,0.0015189999999999
170.40000000000003,0.0039299999999999
170.59999999999997,0.0052829999999999
170.8,0.004572
171.00000000000006,0.00414
171.2,0.001228
171.40000000000003,-0.000261
171.59999999999997,-0.0011049999999999
171.8,-0.002147
172.00000000000006,-0.004969
172.2,-0.004471
172.40000000000003,-0.0025789999999999
172.59999999999997,-0.0014819999999999
172.8,-0.000927
173.00000000000006,0.0010499999999999
173.2,0.002998
173.40000000000003,0.001684
173.59999999999997,0.000655
173.8,0.002342
174.00000000000006,0.004476
174.2,0.0054589999999999
174.40000000000003,0.0060689999999999
174.59999999999997,0.006635
174.8,0.007085
175.00000000000006,0.0066579999999999
175.2,0.0051559999999999
175.40000000000003,0.004101
175.59999999999997,0.000865
175.8,-0.006122
176.00000000000006,-0.011299
176.2,-0.0132309999999999
176.40000000000003,-0.0128039999999999
176.59999999999997,-0.0111229999999999
176.8,-0.005529
177.00000000000006,-0.0018809999999999
177.2,-0.000462
177.40000000000003,-0.0008509999999999
177.59999999999997,0.0007369999999999
177.8,0.001244
178.00000000000006,0.001456
178.2,0.0014339999999999
178.40000000000003,0.003282
178.59999999999997,0.003717
178.8,0.0042679999999999
179.00000000000006,0.003195
179.2,0.004252
179.40000000000003,0.003254
179.59999999999997,0.0027909999999999
179.8,0.001607
180.00000000000006,0.005514
180.2,0.007886
180.40000000000003,0.008132
180.6,0.0061309999999999
180.8,0.0053699999999999
181.00000000000009,0.0009709999999999
181.2,-0.0026629999999999
181.40000000000003,-0.0066259999999999
181.6,-0.0084369999999999
181.8,-0.0108849999999999
182.00000000000009,-0.010643
182.2,-0.0094199999999999
182.40000000000003,-0.0031309999999999
182.6,0.001972
182.8,0.005931
183.00000000000009,0.007427
183.2,0.0065319999999999
183.40000000000003,0.002533
183.6,0.000732
183.8,0.0002119999999999
184.00000000000009,-0.0011069999999999
184.2,-0.0027369999999999
184.40000000000003,-0.0024389999999999
184.6,-0.0002739999999999
184.8,0.0002889999999999
185.00000000000009,0.0005169999999999
185.2,0.000597
185.40000000000003,0.001182
185.6,-0.002205
185.8,-0.0050439999999999
186.00000000000009,-0.0084199999999999
186.2,-0.0081319999999999
186.40000000000003,-0.0091129999999999
186.6,-0.007058
186.8,-0.006303
187.00000000000009,-0.0010899999999999
187.2,0.0036479999999999
187.40000000000003,0.007772
187.6,0.0059859999999999
187.8,0.003529
188.00000000000009,-0.001151
188.2,-0.0062149999999999
188.40000000000003,-0.009106
188.6,-0.0098079999999999
188.8,-0.0085459999999999
189.00000000000009,-0.0054379999999999
189.2,-0.0011929999999999
189.40000000000003,0.002254
189.6,0.0057869999999999
189.8,0.0080609999999999
190.00000000000009,0.005357
190.2,0.0006889999999999
190.40000000000003,-0.004861
190.6,-0.0090009999999999
190.8,-0.011529
191.00000000000009,-0.008865
191.2,-0.0064929999999999
191.40000000000003,-0.0045049999999999
191.6,-0.002207
191.8,-0.0016349999999999
192.00000000000009,-0.002989
192.2,-0.0040229999999999
192.40000000000003,-0.0046009999999999
192.6,-0.0054609999999999
192.8,-0.0042669999999999
193.00000000000009,-0.002894
193.2,-0.003732
193.40000000000003,-0.0051009999999999
193.6,-0.0046749999999999
193.8,-0.004514
194.00000000000009,-0.0044549999999999
194.2,-0.0037249999999999
194.40000000000003,-0.0018699999999999
194.6,-0.001562
194.8,-0.0034959999999999
195.00000000000009,-0.0043949999999999
195.2,-0.0026579999999999
195.40000000000003,-0.0007149999999999
195.6,-0.0004119999999999
195.8,0.002449
196.00000000000009,0.002487
196.2,0.002626
196.40000000000003,0.0026289999999999
196.6,0.004203
196.8,0.0063779999999999
197.00000000000009,0.011278
197.2,0.0117909999999999
197.40000000000003,0.0091669999999999
197.6,0.00622
197.8,0.002665
198.00000000000009,0.000528
198.2,0.0025479999999999
198.40000000000003,0.007694
198.6,0.009577
198.8,0.009109
199.00000000000009,0.0077039999999999
199.2,0.006126
199.40000000000003,0.00408
199.6,0.0054509999999999
199.8,0.0077039999999999
200.00000000000009,0.0081019999999999
200.2,0.0057349999999999
200.40000000000003,0.00425
200.6,0.003626
200.8,0.00351
201.00000000000009,0.003081
201.2,0.0056249999999999
201.40000000000003,0.006662
201.6,0.006282
201.8,0.005298
202.00000000000009,0.0044219999999999
202.2,0.001331
202.40000000000003,-0.0006599999999999
202.6,-0.0007989999999999
202.8,0.000132
203.00000000000009,0.000298
203.2,0.003537
203.40000000000003,0.006081
203.6,0.0062389999999999
203.8,0.0056849999999999
204.00000000000009,0.0059569999999999
204.2,0.004551
204.40000000000003,0.002752
204.6,0.00413
204.8,0.0061249999999999
205.00000000000009,0.006392
205.2,0.0070299999999999
205.40000000000003,0.008778
205.6,0.007554
205.8,0.007111
206.00000000000009,0.00878
206.2,0.0091129999999999
206.40000000000003,0.008215
206.6,0.006331
206.8,0.0028679999999999
207.00000000000009,-0.0014969999999999
207.2,-0.007089
207.40000000000003,-0.0098599999999999
207.6,-0.0114849999999999
207.8,-0.0126459999999999
208.00000000000009,-0.0125299999999999
208.2,-0.010612
208.40000000000003,-0.01072
208.6,-0.0104219999999999
208.8,-0.011506
209.00000000000009,-0.0109969999999999
209.2,-0.0093849999999999
209.40000000000003,-0.007886
209.6,-0.0087539999999999
209.8,-0.006494
210.00000000000009,-0.0043159999999999
210.2,-0.003054
210.40000000000003,-0.0028869999999999
210.6,-0.0015539999999999
210.8,-0.0013269999999999
211.00000000000009,-0.0032289999999999
211.2,-0.003653
211.40000000000003,-0.0035029999999999
211.6,-0.0031309999999999
211.8,-0.0043279999999999
212.00000000000009,-0.0042179999999999
212.2,-0.004541
212.40000000000003,-0.0039819999999999
212.6,-0.0029349999999999
212.8,-0.000788
213.00000000000009,-0.0008309999999999
213.2,-0.000703
213.40000000000003,-0.0009159999999999
213.6,-0.0005509999999999
213.8,0.002649
214.00000000000009,0.005219
214.2,0.005857
214.40000000000003,0.003724
214.6,0.004279
214.8,0.0023719999999999
215.00000000000009,0.0001639999999999
215.2,-0.0024359999999999
215.40000000000003,-0.0022269999999999
215.6,-0.0040379999999999
215.8,-0.0059929999999999
216.00000000000009,-0.0068659999999999
216.2,-0.004645
216.40000000000003,-0.0037599999999999
216.6,-0.0032249999999999
216.8,-0.0021439999999999
217.00000000000009,0.0007309999999999
217.2,0.002058
217.40000000000003,0.0043469999999999
217.6,0.0028569999999999
217.8,0.000261
218.00000000000009,-0.0025739999999999
218.2,-0.004981
218.40000000000003,-0.005996
218.6,-0.005166
218.8,-0.0030299999999999
219.00000000000009,-0.0026149999999999
219.2,-0.00279
219.40000000000003,-0.004421
219.6,-0.0027949999999999
219.8,-0.0020979999999999
220.00000000000009,-0.0009009999999999
220.2,-0.001958
220.40000000000003,-0.0012329999999999
220.6,-0.0007809999999999
220.8,0.000199
221.00000000000009,0.00228
221.2,0.0044589999999999
221.40000000000003,0.0072969999999999
221.6,0.008498
221.8,0.009213
222.00000000000009,0.007688
222.2,0.006923
222.40000000000003,0.0055499999999999
222.6,0.004613
222.8,0.001605
223.00000000000009,0.0003989999999999
223.2,-0.001
223.40000000000003,-0.0050629999999999
223.6,-0.008716
223.8,-0.0065449999999999
224.00000000000009,-0.00461
224.2,-0.0029299999999999
224.40000000000003,0.0001539999999999
224.6,0.0029609999999999
224.8,6.0000000000004494e-05
225.00000000000009,-0.0022619999999999
225.2,-0.0031859999999999
225.40000000000003,-0.0039
225.6,-0.004284
225.8,-0.003375
226.00000000000009,-0.0043259999999999
226.2,-0.003707
226.40000000000003,-0.0039939999999999
226.6,-0.0033849999999999
226.8,-0.0041319999999999
227.00000000000009,-0.0023699999999999
227.2,-0.004029
227.40000000000003,-0.002697
227.6,-0.0035999999999999
227.8,-0.002151
228.00000000000009,-0.002197
228.2,-0.001224
228.40000000000003,-0.000379
228.6,0.000383
228.8,0.001161
229.00000000000009,0.0013699999999999
229.2,0.003236
229.40000000000003,0.0028
229.6,0.002253
229.8,-0.0007949999999999
230.00000000000009,-0.0015239999999999
230.2,-0.006458
230.40000000000003,-0.009784
230.6,-0.0099859999999999
230.8,-0.0059409999999999
231.00000000000009,-0.004761
231.2,-0.0003019999999999
231.40000000000003,0.0020899999999999
231.6,0.002906
231.8,0.002054
232.00000000000009,0.001035
232.2,0.001866
232.40000000000003,0.002292
232.6,0.0037929999999999
232.8,0.004169
233.00000000000009,0.005485
233.2,0.0064759999999999
233.40000000000003,0.00758
233.6,0.006101
233.8,0.0043699999999999
234.00000000000009,0.005193
234.2,0.003622
234.40000000000003,0.00211
234.6,-0.0002249999999999
234.8,-0.0027959999999999
235.00000000000009,-0.006118
235.2,-0.0061189999999999
235.40000000000003,-0.006029
235.6,-0.0059199999999999
235.8,-0.0057229999999999
236.00000000000009,-0.0068599999999999
236.2,-0.0084779999999999
236.40000000000003,-0.0090729999999999
236.6,-0.0088349999999999
236.8,-0.006541
237.00000000000009,-0.0039549999999999
237.2,-0.0052749999999999
237.40000000000003,-0.0060109999999999
237.6,-0.002415
237.8,0.0008239999999999
238.00000000000009,0.0026309999999999
238.2,0.0064
238.40000000000003,0.008382
238.6,0.006402
238.8,0.003671
239.00000000000009,0.002388
239.2,0.0001539999999999
239.40000000000003,-0.000732
239.6,-0.0013559999999999
239.8,-0.001809
240.00000000000009,-0.0032969999999999
240.2,-0.0049389999999999
240.40000000000003,-0.0054469999999999
240.6,-0.006444
240.8,-0.0062849999999999
241.00000000000009,-0.0054
241.2,-0.003361
241.40000000000003,-0.004726
241.6,-0.0058309999999999
241.8,-0.0072369999999999
242.00000000000009,-0.0066009999999999
242.2,-0.004012
242.40000000000003,-0.0011859999999999
242.6,0.00159
242.8,0.002777
243.00000000000009,0.001356
243.2,-0.003041
243.40000000000003,-0.006672
243.6,-0.008678
243.8,-0.009855
244.00000000000009,-0.0096589999999999
244.2,-0.009386
244.40000000000003,-0.0069089999999999
244.6,-0.0035209999999999
244.8,0.0002719999999999
245.00000000000009,0.003137
245.2,0.005219
245.40000000000003,0.0044009999999999
245.6,0.00385
245.8,0.0044239999999999
246.00000000000009,0.0052269999999999
246.2,0.0044
246.40000000000003,0.003504
246.6,0.001471
246.8,-0.002564
247.00000000000009,-0.007002
247.2,-0.0086749999999999
247.40000000000003,-0.0076729999999999
247.6,-0.008427
247.8,-0.0062139999999999
248.00000000000009,-0.0032169999999999
248.2,0.000952
248.40000000000003,0.0010249999999999
248.6,0.001979
248.8,0.000842
249.00000000000009,0.002193
249.2,0.0015149999999999
249.40000000000003,0.0032059999999999
249.6,0.004808
249.8,0.0064839999999999
250.00000000000009,0.004805
250.2,0.003089
250.40000000000003,0.0017289999999999
250.6,0.001752
250.8,0.0014689999999999
251.00000000000009,0.001491
251.2,0.0035419999999999
251.40000000000003,0.003192
251.6,-0.0004099999999999
251.8,-0.0024279999999999
252.00000000000009,-0.002643
252.2,-0.0052079999999999
252.40000000000003,-0.002989
252.6,0.0013029999999999
252.8,0.003165
253.00000000000009,0.0032019999999999
253.2,0.0041559999999999
253.40000000000003,0.003559
253.6,0.001487
253.8,0.0012349999999999
254.00000000000009,0.000676
254.2,0.001097
254.40000000000003,-0.0007689999999999
254.6,-2.2999999999995246e-05
254.8,0.0001869999999999
255.00000000000009,0.001475
255.2,0.003058
255.40000000000003,0.0051999999999999
255.6,0.0063179999999999
255.8,0.006274
256.00000000000006,0.002803
256.2,-0.000479
256.40000000000003,-0.0030009999999999
256.6,-0.0062849999999999
256.8,-0.0084909999999999
257.00000000000006,-0.0083369999999999
257.2,-0.007429
257.40000000000003,-0.005701
257.6,-0.003896
257.8,-0.0017309999999999
258.00000000000006,0.000871
258.2,0.003418
258.40000000000003,0.0065029999999999
258.6,0.006192
258.8,0.003769
259.00000000000006,0.002539
259.2,0.001377
259.40000000000003,0.001197
259.6,0.004669
259.8,0.0089529999999999
260.00000000000006,0.010497
260.2,0.0070999999999999
260.40000000000003,0.0012159999999999
260.6,-0.002776
260.8,-0.0076539999999999
261.00000000000006,-0.0084329999999999
261.2,-0.0060089999999999
261.40000000000003,-0.0036709999999999
261.6,-0.006676
261.8,-0.0080469999999999
262.00000000000006,-0.009643
262.2,-0.009753
262.40000000000003,-0.0101149999999999
262.6,-0.008334
262.8,-0.00645
263.00000000000006,-0.003834
263.2,-0.000624
263.40000000000003,0.000919
263.6,0.000381
263.8,-0.0007139999999999
264.00000000000006,-0.0037739999999999
264.2,-0.008089
264.40000000000003,-0.009178
264.6,-0.00557
264.8,-0.0012249999999999
265.00000000000006,0.001576
265.2,0.0023839999999999
265.40000000000003,0.003886
265.6,0.005058
265.8,0.003253
266.00000000000006,0.001666
266.2,0.003296
266.40000000000003,0.0036269999999999
266.6,-5.8000000000002494e-05
266.8,-0.0018099999999999
267.00000000000006,-0.0025669999999999
267.2,-0.00361
267.40000000000003,-0.0022539999999999
267.6,0.001981
267.8,0.005862
268.00000000000006,0.0052369999999999
268.2,0.002873
268.40000000000003,0.000147
268.6,-0.0016209999999999
268.8,-0.0064919999999999
269.00000000000006,-0.008012
269.2,-0.0093769999999999
269.40000000000003,-0.011334
269.6,-0.0134369999999999
269.8,-0.0088489999999999
270.00000000000006,-0.004367
270.2,0.001368
270.40000000000003,0.0038179999999999
270.6,0.005821
270.8,0.0046019999999999
271.00000000000006,0.0030129999999999
271.2,0.000228
271.40000000000003,0.000284
271.6,-0.0007969999999999
271.8,-0.0027149999999999
272.00000000000006,-0.0033079999999999
272.2,-0.004041
272.40000000000003,-0.007494
272.6,-0.0093579999999999
272.8,-0.01188
273.00000000000006,-0.013656
273.2,-0.0149889999999999
273.40000000000003,-0.013558
273.6,-0.0123889999999999
273.8,-0.0098209999999999
274.00000000000006,-0.0082439999999999
274.2,-0.007678
274.40000000000003,-0.0088229999999999
274.6,-0.008921
274.8,-0.0079409999999999
275.00000000000006,-0.0074069999999999
275.2,-0.0082459999999999
275.40000000000003,-0.006203
275.6,-0.008344
275.8,-0.0101339999999999
276.00000000000006,-0.0098459999999999
276.2,-0.0061479999999999
276.40000000000003,-0.0044799999999999
276.6,-0.0009919999999999
276.8,0.000451
277.00000000000006,0.001972
277.2,-0.0001789999999999
277.40000000000003,-0.003114
277.6,-0.0057909999999999
277.8,-0.0052309999999999
278.00000000000006,-0.0069429999999999
278.2,-0.005745
278.40000000000003,-0.005467
278.6,-0.0053219999999999
278.8,-0.006054
279.00000000000006,-0.0041919999999999
279.2,-0.0025799999999999
279.40000000000003,-0.000948
279.6,-0.001811
279.8,-0.0033599999999999
280.00000000000006,-0.005778
280.2,-0.006894
280.40000000000003,-0.006504
280.6,-0.0031459999999999
280.8,-0.0025129999999999
281.00000000000006,-0.003016
281.2,-0.0034399999999999
281.40000000000003,-0.003417
281.6,-0.004593
281.8,-0.0066269999999999
282.00000000000006,-0.007396
282.2,-0.0072399999999999
282.40000000000003,-0.0070469999999999
282.6,-0.0058429999999999
282.8,-0.0009079999999999
283.00000000000006,0.0041789999999999
283.2,0.005139
283.40000000000003,0.004443
283.6,0.005027
283.8,0.005518
284.00000000000006,0.003773
284.2,0.001176
284.40000000000003,-0.0005109999999999
284.6,-0.0045939999999999
284.8,-0.0082119999999999
285.00000000000006,-0.0107309999999999
285.2,-0.0093059999999999
285.40000000000003,-0.009019
285.6,-0.007147
285.8,-0.0066439999999999
286.00000000000006,-0.004765
286.2,-0.005095
286.40000000000003,-0.001651
286.6,-0.0005899999999999
286.8,0.0005939999999999
287.00000000000006,-0.0006859999999999
287.2,-0.0006289999999999
287.40000000000003,-0.0036249999999999
287.6,-0.0051269999999999
287.8,-0.007442
288.00000000000006,-0.0077439999999999
288.2,-0.0084239999999999
288.40000000000003,-0.0080799999999999
288.6,-0.0063599999999999
288.8,-0.0039639999999999
289.00000000000006,-0.0025339999999999
289.2,-0.0005169999999999
289.40000000000003,0.0005959999999999
289.6,0.000472
289.8,-0.002153
290.00000000000006,-0.004014
290.2,-0.004751
290.40000000000003,-0.003738
290.6,-0.0054759999999999
290.8,-0.005502
291.00000000000006,-0.00694
291.2,-0.0096209999999999
291.40000000000003,-0.0117109999999999
291.6,-0.0083769999999999
291.8,-0.003251
292.00000000000006,0.001684
292.2,0.00553
292.40000000000003,0.00736
292.6,0.004014
292.8,0.000311
293.00000000000006,-0.0007499999999999
293.2,-0.0008039999999999
293.40000000000003,-0.0002979999999999
293.6,0.003738
293.8,0.005454
294.00000000000006,0.004765
294.2,0.002031
294.40000000000003,-0.0001939999999999
294.6,-0.0032669999999999
294.8,-0.0034529999999999
295.00000000000006,-0.0028079999999999
295.2,-0.0011229999999999
295.40000000000003,0.0004609999999999
295.6,0.000526
295.8,0.0012409999999999
296.00000000000006,0.001833
296.2,0.004282
296.40000000000003,0.0040189999999999
296.6,0.006454
296.8,0.006342
297.00000000000006,0.005122
297.2,0.002085
297.40000000000003,0.000646
297.6,0.0004669999999999
297.8,-0.0009959999999999
298.00000000000006,-0.002794
298.2,-0.003757
298.40000000000003,-0.0043009999999999
298.6,-0.007216
298.8,-0.006732
299.00000000000006,-0.0049319999999999
299.2,-0.003348
299.40000000000003,-0.0010239999999999
299.6,0.003149
299.8,0.0032909999999999
299.99999999999994,0.001083
300.1999999999999,-0.002564
300.3999999999999,-0.008236
300.6,-0.010643
300.7999999999999,-0.011175
300.99999999999994,-0.010457
301.2,-0.009016
301.3999999999999,-0.009696
301.6,-0.010125
301.7999999999999,-0.009336
301.99999999999994,-0.008196
302.2,-0.006246
302.3999999999999,-0.004515
302.6,-0.004077
302.7999999999999,-0.005729
302.99999999999994,-0.007864
303.2,-0.011694
303.3999999999999,-0.016539
303.6,-0.017885
303.7999999999999,-0.017975
303.99999999999994,-0.016872
304.2,-0.017199
304.3999999999999,-0.014848
304.6,-0.013523
304.7999999999999,-0.016247
304.99999999999994,-0.020742
305.2,-0.023983
305.3999999999999,-0.025394
305.6,-0.02743
305.7999999999999,-0.025335
305.99999999999994,-0.019912
306.2,-0.015128
306.3999999999999,-0.011919
306.6,-0.009818
306.7999999999999,-0.009119
306.99999999999994,-0.00857
307.2,-0.006893
307.3999999999999,-0.005796
307.6,-0.004442
307.7999999999999,-0.004501
307.99999999999994,-0.007643
308.2,-0.009236
308.3999999999999,-0.0111
308.6,-0.012974
308.7999999999999,-0.012969
308.99999999999994,-0.007813
309.2,-0.00485
309.3999999999999,-0.002326
309.6,-0.002062
309.7999999999999,-0.000858
309.99999999999994,-0.002228
310.2,-0.003502
310.3999999999999,-0.006354
310.6,-0.00655
310.7999999999999,-0.007721
310.99999999999994,-0.009308
311.2,-0.010493
311.3999999999999,-0.009042
311.6,-0.011322
311.7999999999999,-0.012995
311.99999999999994,-0.013297
312.2,-0.01119
312.3999999999999,-0.009709
312.6,-0.005351
312.7999999999999,-0.003672
312.99999999999994,-0.004439
313.2,-0.009122
313.3999999999999,-0.0114
313.6,-0.014702
313.7999999999999,-0.015169
313.99999999999994,-0.015863
314.2,-0.013652
314.3999999999999,-0.013524
314.6,-0.010514
314.7999999999999,-0.009048
314.99999999999994,-0.007908
315.2,-0.010465
315.3999999999999,-0.01265
315.6,-0.016371
315.7999999999999,-0.017248
315.99999999999994,-0.017449
316.2,-0.015475
316.3999999999999,-0.012833
316.6,-0.009493
316.7999999999999,-0.009142
316.99999999999994,-0.009067
317.2,-0.011035
317.3999999999999,-0.012367
317.6,-0.014405
317.7999999999999,-0.012816
317.99999999999994,-0.010248
318.2,-0.007297
318.3999999999999,-0.007599
318.6,-0.00588
318.7999999999999,-0.00559
318.99999999999994,-0.008139
319.2,-0.011441
319.3999999999999,-0.013716
319.6,-0.016212
319.7999999999999,-0.017909
319.99999999999994,-0.018267
320.2,-0.016613
320.3999999999999,-0.014848
320.6,-0.013521
320.7999999999999,-0.014841
320.99999999999994,-0.01469
321.2,-0.014194
321.3999999999999,-0.013258
321.6,-0.013202
321.7999999999999,-0.013566
321.99999999999994,-0.015569
322.2,-0.01504
322.3999999999999,-0.013742
322.6,-0.0137
322.7999999999999,-0.0135
322.99999999999994,-0.013344
323.2,-0.016022
323.3999999999999,-0.01942
323.6,-0.019029
323.7999999999999,-0.01698
323.99999999999994,-0.012797
324.2,-0.0095
324.3999999999999,-0.006707
324.6,-0.005784
324.7999999999999,-0.007281
324.99999999999994,-0.009799
325.2,-0.009491
325.3999999999999,-0.00937
325.6,-0.007658
325.7999999999999,-0.004551
325.99999999999994,-0.002264
326.2,-0.003136
326.3999999999999,-0.003594
326.6,-0.005474
326.7999999999999,-0.006859
326.99999999999994,-0.007636
327.2,-0.007875
327.3999999999999,-0.009198
327.6,-0.008844
327.7999999999999,-0.008517
327.99999999999994,-0.006543
328.2,-0.006701
328.3999999999999,-0.008303
328.6,-0.011147
328.7999999999999,-0.01135
328.99999999999994,-0.012754
329.2,-0.014
329.3999999999999,-0.013618
329.6,-0.0121
329.7999999999999,-0.010778
329.99999999999994,-0.010461
330.2,-0.009939
330.3999999999999,-0.010073
330.6,-0.011842
330.7999999999999,-0.015676
330.99999999999994,-0.019895
331.2,-0.019647
331.3999999999999,-0.018011
331.6,-0.016786
331.7999999999999,-0.015472
331.99999999999994,-0.016024
332.2,-0.017849
332.3999999999999,-0.018708
332.6,-0.019082
332.7999999999999,-0.02102
332.99999999999994,-0.020555
333.2,-0.019269
333.3999999999999,-0.01952
333.6,-0.019958
333.7999999999999,-0.017492
333.99999999999994,-0.014837
334.2,-0.011228
334.3999999999999,-0.007861
334.6,-0.006626
334.7999999999999,-0.007488
334.99999999999994,-0.009886
335.2,-0.015457
335.3999999999999,-0.020451
335.6,-0.021111
335.7999999999999,-0.019001
335.99999999999994,-0.016401
336.2,-0.013273
336.3999999999999,-0.012307
336.6,-0.013273
336.7999999999999,-0.01685
336.99999999999994,-0.018815
337.2,-0.019627
337.3999999999999,-0.018075
337.6,-0.015373
337.7999999999999,-0.012239
337.99999999999994,-0.010139
338.2,-0.010462
338.3999999999999,-0.008573
338.6,-0.006495
338.7999999999999,-0.005001
338.99999999999994,-0.004416
339.2,-0.001678
339.3999999999999,-0.001924
339.6,-0.003235
339.7999999999999,-0.004358
339.99999999999994,-0.004962
340.2,-0.008119
340.3999999999999,-0.011127
340.6,-0.013345
340.7999999999999,-0.015286
340.99999999999994,-0.014778
341.2,-0.014042
341.3999999999999,-0.012118
341.6,-0.013077
341.7999999999999,-0.013257
341.99999999999994,-0.013471
342.2,-0.013288
342.3999999999999,-0.015453
342.6,-0.015133
342.7999999999999,-0.013463
342.99999999999994,-0.013373
343.2,-0.012824
343.3999999999999,-0.011719
343.6,-0.011201
343.7999999999999,-0.012897
343.99999999999994,-0.013265
344.2,-0.013383
344.3999999999999,-0.012729
344.6,-0.010587
344.7999999999999,-0.007561
344.99999999999994,-0.005393
345.2,-0.003433
345.3999999999999,-0.002987
345.6,-0.003472
345.7999999999999,-0.006505
345.99999999999994,-0.007971
346.2,-0.011904
346.3999999999999,-0.012926
346.6,-0.016239
346.7999999999999,-0.015375
346.99999999999994,-0.017609
347.2,-0.016773
347.3999999999999,-0.018608
347.6,-0.018186
347.7999999999999,-0.020168
347.99999999999994,-0.020862
348.2,-0.020238
348.3999999999999,-0.017725
348.6,-0.016887
348.7999999999999,-0.016527
348.99999999999994,-0.015408
349.2,-0.013968
349.3999999999999,-0.011977
349.6,-0.01013
349.7999999999999,-0.007914
349.99999999999994,-0.006175
350.2,-0.00618
350.3999999999999,-0.008077
350.6,-0.007294
350.7999999999999,-0.006738
350.99999999999994,-0.007522
351.2,-0.009467
351.3999999999999,-0.00893
351.6,-0.008184
351.7999999999999,-0.007346
351.99999999999994,-0.007348
352.2,-0.008065
352.3999999999999,-0.010874
352.6,-0.013946
352.7999999999999,-0.016404
352.99999999999994,-0.015048
353.2,-0.010539
353.3999999999999,-0.008596
353.6,-0.010241
353.7999999999999,-0.012589
353.99999999999994,-0.013644
354.2,-0.014603
354.3999999999999,-0.01158
354.6,-0.008669
354.7999999999999,-0.006311
354.99999999999994,-0.008109
355.2,-0.010376
355.3999999999999,-0.011924
355.6,-0.011533
355.7999999999999,-0.013637
355.99999999999994,-0.014277
356.2,-0.016429
356.3999999999999,-0.017128
356.6,-0.017576
356.7999999999999,-0.01466
356.99999999999994,-0.012317
357.2,-0.008674
357.3999999999999,-0.008333
357.6,-0.006749
357.7999999999999,-0.006394
357.99999999999994,-0.007663
358.2,-0.008315
358.3999999999999,-0.007638
358.6,-0.007672
358.7999999999999,-0.008043
358.99999999999994,-0.004955
359.2,-0.005664
359.3999999999999,-0.007266
359.6,-0.008732
359.7999999999999,-0.007241
359.99999999999994,-0.009279
360.2,-0.008986
360.3999999999999,-0.010516
360.6,-0.012512
360.7999999999999,-0.01756
361.0,-0.021593
361.2,-0.023326
361.3999999999999,-0.022272
361.6,-0.02047
361.7999999999999,-0.017797
362.0,-0.013818
362.2,-0.012282
362.3999999999999,-0.011061
362.6,-0.01282
362.7999999999999,-0.013537
363.0,-0.013683
363.2,-0.013536
363.3999999999999,-0.012987
363.6,-0.010863
363.7999999999999,-0.009713
364.0,-0.009933
364.2,-0.010582
364.3999999999999,-0.011899
364.6,-0.011481
364.7999999999999,-0.011277
365.0,-0.01028
365.2,-0.009111
365.3999999999999,-0.00883
365.6,-0.009326
365.7999999999999,-0.00846
366.0,-0.006846
366.2,-0.007358
366.3999999999999,-0.006956
366.6,-0.007032
366.7999999999999,-0.006201
367.0,-0.007854
367.2,-0.006599
367.3999999999999,-0.006182
367.6,-0.005959
367.7999999999999,-0.007713
368.0,-0.009171
368.2,-0.01149
368.3999999999999,-0.011719
368.6,-0.010409
368.7999999999999,-0.008788
369.0,-0.006049
369.2,-0.001543
369.3999999999999,0.0022949999999999
369.6,0.0028949999999999
369.7999999999999,0.0042759999999999
370.0,0.0043699999999999
370.2,0.0009959999999999
370.3999999999999,-0.006597
370.6,-0.01183
370.7999999999999,-0.017254
371.0,-0.02011
371.2,-0.02126
371.3999999999999,-0.016991
371.6,-0.014055
371.7999999999999,-0.011647
372.0,-0.009684
372.2,-0.00916
372.3999999999999,-0.009503
372.6,-0.008805
372.7999999999999,-0.008276
373.0,-0.007757
373.2,-0.005288
373.3999999999999,-0.004532
373.6,-0.004672
373.7999999999999,-0.006141
374.0,-0.008261
374.2,-0.010305
374.3999999999999,-0.012297
374.6,-0.014428
374.7999999999999,-0.015506
375.0,-0.01398
375.2,-0.014042
375.3999999999999,-0.012384
375.6,-0.010222
375.7999999999999,-0.00831
376.0,-0.009501
376.2,-0.010199
376.3999999999999,-0.012049
376.6,-0.012661
376.7999999999999,-0.012549
377.0,-0.011245
377.2,-0.009981
377.3999999999999,-0.009169
377.6,-0.011444
377.7999999999999,-0.01401
378.0,-0.017851
378.2,-0.020023
378.3999999999999,-0.021597
378.6,-0.020052
378.7999999999999,-0.016563
379.0,-0.011608
379.2,-0.007906
379.3999999999999,-0.008222
379.6,-0.008825
379.7999999999999,-0.01106
380.0,-0.014445
380.2,-0.016622
380.3999999999999,-0.016166
380.6,-0.017747
380.7999999999999,-0.019661
381.0,-0.019982
381.2,-0.020268
381.3999999999999,-0.019238
381.6,-0.015634
381.7999999999999,-0.01163
382.0,-0.009805
382.2,-0.008352
382.3999999999999,-0.008459
382.6,-0.009902
382.7999999999999,-0.012263
383.0,-0.012495
383.2,-0.013128
383.3999999999999,-0.012798
383.6,-0.011403
383.7999999999999,-0.010859
384.0,-0.011849
384.2,-0.013281
384.3999999999999,-0.01564
384.6,-0.017553
384.7999999999999,-0.016613
385.0,-0.016183
385.2,-0.015517
385.3999999999999,-0.014397
385.6,-0.014957
385.7999999999999,-0.015465
386.0,-0.014853
386.2,-0.012169
386.3999999999999,-0.008796
386.6,-0.00687
386.7999999999999,-0.0082
387.0,-0.007431
387.2,-0.009043
387.3999999999999,-0.010396
387.6,-0.012024
387.7999999999999,-0.011209
388.0,-0.014008
388.2,-0.016121
388.3999999999999,-0.017781
388.6,-0.016282
388.7999999999999,-0.015485
389.0,-0.013223
389.2,-0.009779
389.3999999999999,-0.008056
389.6,-0.007189
389.7999999999999,-0.00784
390.0,-0.009487
390.2,-0.012534
390.3999999999999,-0.0148
390.6,-0.017533
390.7999999999999,-0.020618
391.0,-0.022435
391.2,-0.021021
391.3999999999999,-0.019401
391.6,-0.017131
391.7999999999999,-0.012687
392.0,-0.009403
392.2,-0.00922
392.3999999999999,-0.011536
392.6,-0.013779
392.7999999999999,-0.016555
393.0,-0.016703
393.2,-0.018458
393.3999999999999,-0.01859
393.6,-0.018185
393.7999999999999,-0.015488
394.0,-0.014424
394.2,-0.013736
394.3999999999999,-0.013448
394.6,-0.013029
394.7999999999999,-0.016094
395.0,-0.01904
395.2,-0.022668
395.3999999999999,-0.022715
395.6,-0.023558
395.7999999999999,-0.022116
396.0,-0.017568
396.2,-0.010866
396.3999999999999,-0.007759
396.6,-0.00704
396.7999999999999,-0.008247
397.0,-0.011797
397.2,-0.015686
397.3999999999999,-0.017807
397.6,-0.017795
397.7999999999999,-0.015124
398.0,-0.013291
398.2,-0.009972
398.3999999999999,-0.006742
398.6,-0.005457
398.7999999999999,-0.00496
399.0,-0.005559
399.2,-0.009892
399.3999999999999,-0.015332
399.6,-0.017438
399.7999999999999,-0.018796
400.0,-0.020157
400.2,-0.019152
400.3999999999999,-0.016762
400.6,-0.014991
400.7999999999999,-0.014878
401.0,-0.014936
401.2,-0.015305
401.3999999999999,-0.01605
401.6,-0.017612
401.7999999999999,-0.018893
402.0,-0.017779
402.2,-0.014174
402.3999999999999,-0.011463
402.6,-0.009716
402.7999999999999,-0.009011
403.0,-0.00939
403.2,-0.012151
403.3999999999999,-0.013047
403.6,-0.014795
403.7999999999999,-0.01439
404.0,-0.014715
404.2,-0.013334
404.3999999999999,-0.013191
404.6,-0.011761
404.7999999999999,-0.01215
405.0,-0.013599
405.2,-0.014792
405.3999999999999,-0.016318
405.6,-0.017259
405.7999999999999,-0.017349
406.0,-0.015323
406.2,-0.016441
406.3999999999999,-0.016456
406.6,-0.016439
406.7999999999999,-0.014434
407.0,-0.013757
407.2,-0.012399
407.3999999999999,-0.01187
407.6,-0.013256
407.7999999999999,-0.017106
408.0,-0.019475
408.2,-0.021463
408.3999999999999,-0.022789
408.6,-0.020762
408.7999999999999,-0.015858
409.0,-0.013785
409.2,-0.011307
409.3999999999999,-0.010326
409.6,-0.01097
409.7999999999999,-0.014884
410.0,-0.017431
410.2,-0.018433
410.3999999999999,-0.017318
410.6,-0.014301
410.7999999999999,-0.012202
411.0,-0.011044
411.2,-0.01121
411.3999999999999,-0.00916
411.6,-0.009673
411.7999999999999,-0.009765
412.0,-0.008377
412.2,-0.005446
412.3999999999999,-0.007212
412.6,-0.009993
412.7999999999999,-0.01239
413.0,-0.014176
413.2,-0.015588
413.3999999999999,-0.01412
413.6,-0.011556
413.7999999999999,-0.009396
414.0,-0.009195
414.2,-0.009844
414.3999999999999,-0.010383
414.6,-0.01097
414.7999999999999,-0.011672
415.0,-0.012124
415.2,-0.013643
415.3999999999999,-0.017278
415.6,-0.020576
415.7999999999999,-0.021212
416.0,-0.022001
416.2,-0.021694
416.3999999999999,-0.02038
416.6,-0.018811
416.7999999999999,-0.016547
417.0,-0.013457
417.2,-0.010135
417.3999999999999,-0.008339
417.6,-0.007415
417.7999999999999,-0.009259
418.0,-0.011535
418.2,-0.015457
418.3999999999999,-0.01868
418.6,-0.021032
418.7999999999999,-0.020957
419.0,-0.019255
419.2,-0.01762
419.3999999999999,-0.015506
419.6,-0.015064
419.7999999999999,-0.016469
420.0,-0.017588
420.2,-0.01706
420.3999999999999,-0.015393
420.6,-0.013396
420.7999999999999,-0.011284
421.0,-0.010748
421.2,-0.013
421.3999999999999,-0.016356
421.6,-0.019864
421.7999999999999,-0.021045
422.0,-0.020973
422.2,-0.018538
422.3999999999999,-0.017459
422.6,-0.014872
422.7999999999999,-0.013784
423.0,-0.014549
423.2,-0.015875
423.3999999999999,-0.015658
423.6,-0.015225
423.7999999999999,-0.016376
424.0,-0.015854
424.2,-0.013893
424.3999999999999,-0.013212
424.6,-0.014041
424.7999999999999,-0.013984
425.0,-0.012447
425.2,-0.011643
425.3999999999999,-0.012243
425.6,-0.01265
425.7999999999999,-0.013176
426.0,-0.01485
426.2,-0.015961
426.3999999999999,-0.014856
426.6,-0.012392
426.7999999999999,-0.010561
427.0,-0.008951
427.2,-0.00849
427.3999999999999,-0.006464
427.6,-0.005403
427.7999999999999,-0.003407
428.0,-0.00211
428.2,-0.000684
428.3999999999999,-0.001318
428.6,-0.004072
428.7999999999999,-0.006972
429.0,-0.010512
429.2,-0.013987
429.3999999999999,-0.017241
429.6,-0.017231
429.7999999999999,-0.018947
430.0,-0.018992
430.2,-0.018926
430.3999999999999,-0.019081
430.6,-0.019288
430.7999999999999,-0.015986
431.0,-0.013362
431.2,-0.010893
431.3999999999999,-0.009382
431.6,-0.008151
431.7999999999999,-0.008917
432.0,-0.009643
432.2,-0.009974
432.3999999999999,-0.009366
432.6,-0.009308
432.7999999999999,-0.007975
433.0,-0.007642
433.2,-0.008811
433.3999999999999,-0.009843
433.6,-0.012338
433.7999999999999,-0.01571
434.0,-0.016438
434.2,-0.015912
434.3999999999999,-0.015511
434.6,-0.014743
434.7999999999999,-0.013932
435.0,-0.013998
435.2,-0.014415
435.3999999999999,-0.013343
435.6,-0.011388
435.7999999999999,-0.008375
436.0,-0.006331
436.2,-0.002937
436.3999999999999,-0.001044
436.6,-0.001193
436.7999999999999,-0.004582
437.0,-0.007968
437.2,-0.012856
437.3999999999999,-0.014574
437.6,-0.013483
437.7999999999999,-0.010178
438.0,-0.009705
438.2,-0.0096
438.3999999999999,-0.011268
438.6,-0.014078
438.7999999999999,-0.016209
439.0,-0.015042
439.2,-0.014608
439.3999999999999,-0.015742
439.6,-0.016091
439.7999999999999,-0.01647
440.0,-0.017996
440.2,-0.016038
440.3999999999999,-0.012784
440.6,-0.009577
440.7999999999999,-0.008975
441.0,-0.007414
441.2,-0.009343
441.3999999999999,-0.013238
441.6,-0.016207
441.7999999999999,-0.014832
442.0,-0.014575
442.2,-0.012619
442.3999999999999,-0.00938
442.6,-0.005995
442.7999999999999,-0.004259
443.0,-0.002398
443.2,-0.002138
443.3999999999999,-0.003771
443.6,-0.006183
443.7999999999999,-0.007872
444.0,-0.010156
444.2,-0.011264
444.3999999999999,-0.008211
444.6,-0.004058
444.7999999999999,-0.001889
445.0,-4.6000000000046e-05
445.2,-0.000245
445.3999999999999,-0.003412
445.6,-0.009597
445.7999999999999,-0.01477
446.0,-0.016631
446.2,-0.016643
446.3999999999999,-0.01668
446.6,-0.014393
446.7999999999999,-0.011658
447.0,-0.009221
447.2,-0.007342
447.3999999999999,-0.003819
447.6,-0.002163
447.7999999999999,-0.00192
448.0,-0.005163
448.2,-0.008561
448.3999999999999,-0.014938
448.6,-0.017777
448.7999999999999,-0.019631
449.0,-0.020085
449.2,-0.018512
449.3999999999999,-0.016806
449.6,-0.018527
449.7999999999999,-0.021295
450.0,-0.020938
450.2,-0.019498
450.3999999999999,-0.016797
450.6,-0.012993
450.7999999999999,-0.011487
451.0,-0.010236
451.2,-0.010843
451.3999999999999,-0.01045
451.6,-0.009691
451.7999999999999,-0.004676
452.0,-0.002223
452.2,-0.001225
452.3999999999999,-0.00216
452.6,-0.004744
452.7999999999999,-0.009016
453.0,-0.01273
453.2,-0.015038
453.3999999999999,-0.015464
453.6,-0.014832
453.7999999999999,-0.013568
454.0,-0.014038
454.2,-0.016964
454.3999999999999,-0.018421
454.6,-0.018916
454.7999999999999,-0.020401
455.0,-0.018622
455.2,-0.013819
455.3999999999999,-0.013023
455.6,-0.013289
455.7999999999999,-0.012895
456.0,-0.012207
456.2,-0.011608
456.3999999999999,-0.008393
456.6,-0.006635
456.7999999999999,-0.006326
457.0,-0.00876
457.2,-0.011532
457.3999999999999,-0.01503
457.6,-0.014715
457.7999999999999,-0.014923
458.0,-0.013021
458.2,-0.012117
458.3999999999999,-0.010125
458.6,-0.010547
458.7999999999999,-0.009983
459.0,-0.009972
459.2,-0.011026
459.3999999999999,-0.011906
459.6,-0.012447
459.7999999999999,-0.010746
460.0,-0.011665
460.2,-0.011427
460.3999999999999,-0.013117
460.6,-0.013525
460.7999999999999,-0.014189
461.0,-0.01303
461.2,-0.010407
461.3999999999999,-0.008084
461.6,-0.010168
461.7999999999999,-0.014573
462.0,-0.017682
462.2,-0.020868
462.3999999999999,-0.021407
462.6,-0.01915
462.7999999999999,-0.015495
463.0,-0.013123
463.2,-0.010513
463.3999999999999,-0.009408
463.6,-0.008305
463.7999999999999,-0.008108
464.0,-0.009326
464.2,-0.010022
464.3999999999999,-0.011877
464.6,-0.013985
464.7999999999999,-0.014757
465.0,-0.014349
465.2,-0.01657
465.3999999999999,-0.018055
465.6,-0.016135
465.7999999999999,-0.014249
466.0,-0.012626
466.2,-0.011785
466.3999999999999,-0.011363
466.6,-0.013207
466.7999999999999,-0.014072
467.0,-0.012535
467.2,-0.011807
467.3999999999999,-0.010126
467.6,-0.007953
467.7999999999999,-0.007041
468.0,-0.007899
468.2,-0.005347
468.3999999999999,-0.004034
468.6,-0.005624
468.7999999999999,-0.008547
469.0,-0.012124
469.2,-0.016459
469.3999999999999,-0.019699
469.6,-0.02011
469.7999999999999,-0.018312
470.0,-0.015128
470.2,-0.012401
470.3999999999999,-0.011158
470.6,-0.012075
470.7999999999999,-0.014127
471.0,-0.016937
471.2,-0.018265
471.3999999999999,-0.01866
471.6,-0.017112
471.7999999999999,-0.013785
472.0,-0.009857
472.2,-0.007174
472.3999999999999,-0.006255
472.6,-0.006837
472.7999999999999,-0.010255
473.0,-0.014356
473.2,-0.018111
473.3999999999999,-0.018023
473.6,-0.020282
473.7999999999999,-0.019478
474.0,-0.018425
474.2,-0.016795
474.3999999999999,-0.016489
474.6,-0.011356
474.7999999999999,-0.009492
475.0,-0.007045
475.2,-0.00671
475.3999999999999,-0.006938
475.6,-0.00925
475.7999999999999,-0.013415
476.0,-0.016952
476.2,-0.017902
476.3999999999999,-0.017099
476.6,-0.016719
476.7999999999999,-0.011616
477.0,-0.009279
477.2,-0.007797
477.3999999999999,-0.006585
477.6,-0.00523
477.7999999999999,-0.008437
478.0,-0.012921
478.2,-0.018979
478.3999999999999,-0.023063
478.6,-0.023812
478.7999999999999,-0.021031
479.0,-0.01606
479.2,-0.011042
479.3999999999999,-0.007618
479.6,-0.008174
479.7999999999999,-0.010299
480.0,-0.012414
480.2,-0.013287
480.3999999999999,-0.015835
480.6,-0.016962
480.7999999999999,-0.014473
481.0,-0.010168
481.2,-0.006437
481.3999999999999,-0.003317
481.6,-0.002448
481.7999999999999,-0.004202
482.0,-0.007701
482.2,-0.010328
482.3999999999999,-0.010541
482.6,-0.008615
482.7999999999999,-0.007712
483.0,-0.007418
483.2,-0.008221
483.3999999999999,-0.010171
483.6,-0.010765
483.7999999999999,-0.010691
484.0,-0.009174
484.2,-0.007977
484.3999999999999,-0.00575
484.6,-0.007308
484.7999999999999,-0.009399
485.0,-0.009813
485.2,-0.009569
485.3999999999999,-0.012952
485.6,-0.013556
485.7999999999999,-0.012163
486.0,-0.012394
486.2,-0.012853
486.3999999999999,-0.011988
486.6,-0.009466
486.7999999999999,-0.007691
487.0,-0.006844
487.2,-0.005523
487.3999999999999,-0.003532
487.6,-0.002998
487.7999999999999,-0.003896
488.0,-0.004678
488.2,-0.006655
488.3999999999999,-0.007914
488.6,-0.009841
488.7999999999999,-0.012161
489.0,-0.01365
489.2,-0.015093
489.3999999999999,-0.016912
489.6,-0.015649
489.7999999999999,-0.011604
490.0,-0.00966
490.2,-0.007828
490.3999999999999,-0.006293
490.6,-0.008
490.7999999999999,-0.01284
491.0,-0.015686
491.2,-0.01692
491.3999999999999,-0.015576
491.6,-0.013774
491.7999999999999,-0.010557
492.0,-0.010084
492.2,-0.009225
492.3999999999999,-0.01051
492.6,-0.011829
492.7999999999999,-0.013903
493.0,-0.013412
493.2,-0.012746
493.3999999999999,-0.011083
493.6,-0.008521
493.7999999999999,-0.006919
494.0,-0.007265
494.2,-0.008076
494.3999999999999,-0.007666
494.6,-0.00894
494.7999999999999,-0.00839
495.0,-0.006659
495.2,-0.004808
495.3999999999999,-0.004761
495.6,-0.005509
495.7999999999999,-0.005292
496.0,-0.006156
496.2,-0.006902
496.3999999999999,-0.008472
496.6,-0.009988
496.7999999999999,-0.011191
497.0,-0.009063
497.2,-0.006285
497.3999999999999,-0.002825
497.6,-0.001312
497.7999999999999,-0.002318
498.0,-0.005337
498.2,-0.006126
498.3999999999999,-0.004994
498.6,-0.002047
498.7999999999999,-0.000743
499.0,-0.001072
499.2,-0.003091
499.3999999999999,-0.007019
499.6,-0.009491
499.7999999999999,-0.010365
500.0,-0.009907
500.2,-0.00963
500.3999999999999,-0.009502
500.6,-0.011159
500.7999999999999,-0.012723
501.0,-0.01409
501.2,-0.017427
501.3999999999999,-0.020496
501.6,-0.021481
501.7999999999999,-0.021069
502.0,-0.020374
502.2,-0.020964
502.3999999999999,-0.021357
502.6,-0.020225
502.7999999999999,-0.019674
503.0,-0.018703
503.2,-0.018032
503.3999999999999,-0.017258
503.6,-0.018044
503.7999999999999,-0.014835
504.0,-0.012771
504.2,-0.008286
504.3999999999999,-0.003771
504.6,-0.000488
504.7999999999999,-0.000438
505.0,-0.00256
505.2,-0.004386
505.3999999999999,-0.00765
505.6,-0.010686
505.7999999999999,-0.01552
506.0,-0.015065
506.2,-0.015674
506.3999999999999,-0.016697
506.6,-0.018349
506.7999999999999,-0.016805
507.0,-0.017547
507.2,-0.018323
507.3999999999999,-0.017688
507.6,-0.014246
507.7999999999999,-0.012968
508.0,-0.012096
508.2,-0.011265
508.3999999999999,-0.008201
508.6,-0.008073
508.7999999999999,-0.008493
509.0,-0.010249
509.2,-0.013293
509.3999999999999,-0.016162
509.6,-0.016895
509.7999999999999,-0.01715
510.0,-0.015429
510.2,-0.012997
510.3999999999999,-0.014473
510.6,-0.017629
510.7999999999999,-0.018341
511.0,-0.018085
511.2,-0.016271
511.3999999999999,-0.013331
511.6,-0.009846
511.7999999999999,-0.009044
512.0,-0.010444
512.2,-0.01238
512.3999999999999,-0.015094
512.5999999999999,-0.01854
512.8,-0.02161
513.0,-0.020022
513.2,-0.017759
513.3999999999999,-0.015296
513.5999999999999,-0.011466
513.8,-0.009709
514.0,-0.011389
514.2,-0.013799
514.3999999999999,-0.016234
514.5999999999999,-0.017458
514.8,-0.015712
515.0,-0.015555
515.2,-0.015404
515.3999999999999,-0.012756
515.5999999999999,-0.011141
515.8,-0.01165
516.0,-0.011376
516.2,-0.008558
516.3999999999999,-0.008834
516.5999999999999,-0.010356
516.8,-0.010779
517.0,-0.009583
517.2,-0.012291
517.3999999999999,-0.012277
517.5999999999999,-0.010098
517.8,-0.008788
518.0,-0.009826
518.2,-0.011844
518.3999999999999,-0.013678
518.5999999999999,-0.017406
518.8,-0.01893
519.0,-0.018711
519.2,-0.015227
519.3999999999999,-0.013611
519.5999999999999,-0.012294
519.8,-0.011326
520.0,-0.010297
520.2,-0.010268
520.3999999999999,-0.011981
520.5999999999999,-0.013263
520.8,-0.014043
521.0,-0.014808
521.2,-0.015288
521.3999999999999,-0.015549
521.5999999999999,-0.012636
521.8,-0.010466
522.0,-0.006957
522.2,-0.004643
522.3999999999999,-0.00221
522.5999999999999,-0.003992
522.8,-0.006799
523.0,-0.009354
523.2,-0.010762
523.3999999999999,-0.00961
523.5999999999999,-0.007209
523.8,-0.004212
524.0,-0.005212
524.2,-0.00805
524.3999999999999,-0.010027
524.5999999999999,-0.010808
524.8,-0.011529
525.0,-0.012157
525.2,-0.009844
525.3999999999999,-0.008899
525.5999999999999,-0.007591
525.8,-0.007943
526.0,-0.00804
526.2,-0.010078
526.3999999999999,-0.012342
526.5999999999999,-0.013411
526.8,-0.012406
527.0,-0.010649
527.2,-0.009842
527.3999999999999,-0.010421
527.5999999999999,-0.013826
527.8,-0.016776
528.0,-0.018222
528.2,-0.017433
528.3999999999999,-0.015588
528.5999999999999,-0.013387
528.8,-0.010888
529.0,-0.009927
529.2,-0.009062
529.3999999999999,-0.009358
529.5999999999999,-0.007618
529.8,-0.004953
530.0,-0.002979
530.2,-0.001441
530.3999999999999,-0.000653
530.5999999999999,-0.002915
530.8,-0.007691
531.0,-0.007672
531.2,-0.008121
531.3999999999999,-0.007177
531.5999999999999,-0.005523
531.8,-0.004379
532.0,-0.006799
532.2,-0.010138
532.3999999999999,-0.012691
532.5999999999999,-0.01367
532.8,-0.012208
533.0,-0.01279
533.2,-0.012311
533.3999999999999,-0.012157
533.5999999999999,-0.014345
533.8,-0.015761
534.0,-0.014689
534.2,-0.012406
534.3999999999999,-0.010442
534.5999999999999,-0.008627
534.8,-0.008612
535.0,-0.008411
535.2,-0.00942
535.3999999999999,-0.010216
535.5999999999999,-0.009711
535.8,-0.008983
536.0,-0.007039
536.2,-0.006229
536.3999999999999,-0.0058
536.5999999999999,-0.006031
536.8,-0.007952
537.0,-0.012512
537.2,-0.013693
537.3999999999999,-0.015488
537.5999999999999,-0.016385
537.8,-0.016618
538.0,-0.015582
538.2,-0.016334
538.3999999999999,-0.015424
538.5999999999999,-0.014445
538.8,-0.012229
539.0,-0.00945
539.2,-0.005677
539.3999999999999,-0.003466
539.5999999999999,-0.002192
539.8,-0.003646
540.0,-0.005863
540.2,-0.009874
540.3999999999999,-0.012203
540.5999999999999,-0.012339
540.8,-0.010224
541.0,-0.010912
541.2,-0.01126
541.3999999999999,-0.012352
541.5999999999999,-0.012859
541.8,-0.014843
542.0,-0.013302
542.2,-0.011882
542.3999999999999,-0.009317
542.5999999999999,-0.010067
542.8,-0.010273
543.0,-0.010752
543.2,-0.010288
543.3999999999999,-0.009935
543.5999999999999,-0.009931
543.8,-0.009466
544.0,-0.009152
544.2,-0.009097
544.3999999999999,-0.01096
544.5999999999999,-0.011903
544.8,-0.011253
545.0,-0.013241
545.2,-0.0171
545.3999999999999,-0.018271
545.5999999999999,-0.019996
545.8,-0.024665
546.0,-0.025474
546.2,-0.022159
546.3999999999999,-0.019444
546.5999999999999,-0.015462
546.8,-0.009858
547.0,-0.005089
547.2,-0.004484
547.3999999999999,-0.005742
547.5999999999999,-0.008
547.8,-0.01022
548.0,-0.012785
548.2,-0.013756
548.3999999999999,-0.014412
548.5999999999999,-0.017193
548.8,-0.018883
549.0,-0.019761
549.2,-0.020464
549.3999999999999,-0.019686
549.5999999999999,-0.014957
549.8,-0.011649
550.0,-0.010991
550.2,-0.011242
550.3999999999999,-0.011959
550.5999999999999,-0.013352
550.8,-0.015193
551.0,-0.01638
551.2,-0.014016
551.3999999999999,-0.0137
551.5999999999999,-0.013959
551.8,-0.014609
552.0,-0.014115
552.2,-0.015826
552.3999999999999,-0.01712
552.5999999999999,-0.018216
552.8,-0.019723
553.0,-0.021764
553.2,-0.022913
553.3999999999999,-0.022305
553.5999999999999,-0.02111
553.8,-0.017019
554.0,-0.013005
554.2,-0.012956
554.3999999999999,-0.015557
554.5999999999999,-0.016167
554.8,-0.018423
555.0,-0.019605
555.2,-0.019545
555.3999999999999,-0.018262
555.5999999999999,-0.019818
555.8,-0.019676
556.0,-0.019893
556.2,-0.018743
556.3999999999999,-0.017949
556.5999999999999,-0.016603
556.8,-0.017867
557.0,-0.016551
557.2,-0.014713
557.3999999999999,-0.010399
557.5999999999999,-0.008393
557.8,-0.006011
558.0,-0.006558
558.2,-0.006427
558.3999999999999,-0.007048
558.5999999999999,-0.005835
558.8,-0.005785
559.0,-0.008637
559.2,-0.012533
559.3999999999999,-0.016916
559.5999999999999,-0.018324
559.8,-0.017688
560.0,-0.015537
560.2,-0.013248
560.3999999999999,-0.011403
560.5999999999999,-0.013317
560.8,-0.016164
561.0,-0.01941
561.2,-0.022692
561.3999999999999,-0.021263
561.5999999999999,-0.017097
561.8,-0.013875
562.0,-0.010246
562.2,-0.007767
562.3999999999999,-0.009797
562.5999999999999,-0.012284
562.8,-0.011474
563.0,-0.010132
563.2,-0.008764
563.3999999999999,-0.008056
563.5999999999999,-0.006465
563.8,-0.006308
564.0,-0.006001
564.2,-0.006986
564.3999999999999,-0.007418
564.5999999999999,-0.009385
564.8,-0.011479
565.0,-0.011537
565.2,-0.009661
565.3999999999999,-0.006182
565.5999999999999,-0.004986
565.8,-0.00255
566.0,-0.00238
566.2,-0.00167
566.3999999999999,-0.003325
566.5999999999999,-0.005324
566.8,-0.009439
567.0,-0.012887
567.2,-0.015183
567.3999999999999,-0.016121
567.5999999999999,-0.014329
567.8,-0.012769
568.0,-0.011177
568.2,-0.010474
568.3999999999999,-0.008751
568.5999999999999,-0.007908
568.8,-0.006126
569.0,-0.004525
569.2,-0.00499
569.3999999999999,-0.007066
569.5999999999999,-0.009358
569.8,-0.011828
570.0,-0.015604
570.2,-0.018302
570.3999999999999,-0.020055
570.5999999999999,-0.021394
570.8,-0.02217
571.0,-0.020698
571.2,-0.017647
571.3999999999999,-0.014588
571.5999999999999,-0.010044
571.8,-0.005838
572.0,-0.003707
572.2,-0.00452
572.3999999999999,-0.004924
572.5999999999999,-0.00514
572.8,-0.004066
573.0,-0.004014
573.2,-0.003217
573.4000000000001,-0.003787
573.5999999999999,-0.006062
573.8,-0.009886
574.0,-0.011818
574.2,-0.012785
574.4000000000001,-0.014641
574.5999999999999,-0.015584
574.8,-0.016266
575.0,-0.017008
575.2,-0.016107
575.4000000000001,-0.013541
575.5999999999999,-0.012869
575.8,-0.013409
576.0,-0.012305
576.2,-0.013164
576.4000000000001,-0.013876
576.5999999999999,-0.013357
576.8,-0.010707
577.0,-0.010176
577.2,-0.010596
577.4000000000001,-0.012488
577.5999999999999,-0.014271
577.8,-0.015891
578.0,-0.016789
578.2,-0.016264
578.4000000000001,-0.012383
578.5999999999999,-0.007439
578.8,-0.006279
579.0,-0.007106
579.2,-0.008374
579.4000000000001,-0.010542
579.5999999999999,-0.014053
579.8,-0.014654
580.0,-0.014454
580.2,-0.014176
580.4000000000001,-0.0157
580.5999999999999,-0.016227
580.8,-0.016512
581.0,-0.013226
581.2,-0.010063
581.4000000000001,-0.006687
581.5999999999999,-0.00535
581.8,-0.003968
582.0,-0.002667
582.2,-0.00182
582.4000000000001,-0.000941
582.5999999999999,-0.001322
582.8,-0.004686
583.0,-0.012048
583.2,-0.01792
583.4000000000001,-0.022049
583.5999999999999,-0.023305
583.8,-0.021849
584.0,-0.018877
584.2,-0.015715
584.4000000000001,-0.011267
584.5999999999999,-0.00787
584.8,-0.005481
585.0,-0.005556
585.2,-0.007805
585.4000000000001,-0.01182
585.5999999999999,-0.014987
585.8,-0.016848
586.0,-0.015958
586.2,-0.014924
586.4000000000001,-0.01331
586.5999999999999,-0.011696
586.8,-0.010425
587.0,-0.009419
587.2,-0.007385
587.4000000000001,-0.008504
587.5999999999999,-0.012101
587.8,-0.014334
588.0,-0.016259
588.2,-0.018327
588.4000000000001,-0.01969
588.5999999999999,-0.018284
588.8,-0.016425
589.0,-0.014423
589.2,-0.012332
589.4000000000001,-0.010534
589.5999999999999,-0.007746
589.8,-0.006721
590.0,-0.007324
590.2,-0.009595
590.4000000000001,-0.011312
590.5999999999999,-0.012606
590.8,-0.011456
591.0,-0.008651
591.2,-0.005428
591.4000000000001,-0.002403
591.5999999999999,-0.003685
591.8,-0.00739
592.0,-0.010247
592.2,-0.010462
592.4000000000001,-0.011712
592.5999999999999,-0.010601
592.8,-0.009547
593.0,-0.00806
593.2,-0.008761
593.4000000000001,-0.00938
593.5999999999999,-0.009384
593.8,-0.010957
594.0,-0.014342
594.2,-0.017262
594.4000000000001,-0.015638
594.5999999999999,-0.015246
594.8,-0.013364
595.0,-0.011404
595.2,-0.010851
595.4000000000001,-0.0128
595.5999999999999,-0.013708
595.8,-0.014185
596.0,-0.014548
596.2,-0.013592
596.4000000000001,-0.014429
596.5999999999999,-0.016223
596.8,-0.017924
597.0,-0.016604
597.2,-0.014538
597.4000000000001,-0.010861
597.5999999999999,-0.010416
597.8,-0.011238
598.0,-0.012918
598.2,-0.015768
598.4000000000001,-0.018343
598.5999999999999,-0.018026
598.8,-0.017983
