Time (s),Shift (nm)
0.0,0.0
0.1999999999999886,-0.000866
0.3999999999999772,-0.001308
0.6000000000000227,0.0009139999999999
0.8000000000000114,0.0024959999999999
1.0,0.0027949999999999
1.1999999999999886,0.0033649999999999
1.3999999999999773,0.0032199999999999
1.6000000000000227,0.0042139999999999
1.8000000000000114,0.005856
2.0,0.0079739999999999
2.1999999999999886,0.0077869999999999
2.3999999999999773,0.0091119999999999
2.6000000000000227,0.0095289999999999
2.800000000000012,0.0103319999999999
3.0,0.0108359999999999
3.1999999999999886,0.012516
3.3999999999999773,0.011392
3.6000000000000227,0.011404
3.8000000000000114,0.0140009999999999
4.0,0.0142949999999999
4.199999999999989,0.0133339999999999
4.399999999999977,0.0125299999999999
4.600000000000023,0.008539
4.800000000000011,0.0048139999999999
5.0,0.0029939999999999
5.199999999999989,0.0048699999999999
5.399999999999977,0.0077119999999999
5.600000000000023,0.0117449999999999
5.800000000000011,0.0122369999999999
6.0,0.0134939999999999
6.199999999999989,0.010649
6.399999999999977,0.007576
6.600000000000023,0.0063859999999999
6.800000000000011,0.006854
7.0,0.0060999999999999
7.199999999999989,0.0067259999999999
7.399999999999977,0.0090849999999999
7.600000000000023,0.008765
7.800000000000011,0.0073949999999999
8.0,0.0067279999999999
8.199999999999989,0.0069129999999999
8.399999999999977,0.008126
8.600000000000023,0.0105009999999999
8.800000000000011,0.012672
9.0,0.01135
9.199999999999989,0.0113619999999999
9.399999999999975,0.0080169999999999
9.600000000000025,0.0078579999999999
9.800000000000011,0.0097949999999999
10.0,0.014112
10.199999999999989,0.0134509999999999
10.399999999999975,0.012595
10.600000000000025,0.0097719999999999
10.800000000000011,0.0058309999999999
11.0,-0.000357
11.199999999999989,-0.001007
11.399999999999975,0.0007599999999999
11.600000000000025,0.0021309999999999
11.800000000000011,0.0026429999999999
12.0,0.007655
12.199999999999989,0.0092479999999999
12.399999999999975,0.009647
12.600000000000025,0.009157
12.800000000000011,0.0093849999999999
13.0,0.0078599999999999
13.199999999999989,0.006933
13.399999999999975,0.00746
13.600000000000025,0.0076189999999999
13.800000000000011,0.008408
14.0,0.0079259999999999
14.199999999999989,0.010311
14.399999999999975,0.0119119999999999
14.600000000000025,0.0121869999999999
14.800000000000011,0.0106069999999999
15.0,0.0108309999999999
15.199999999999989,0.0106229999999999
15.399999999999975,0.0100129999999999
15.600000000000025,0.0095919999999999
15.800000000000011,0.0081159999999999
16.0,0.005925
16.19999999999999,0.003518
16.399999999999977,0.0029479999999999
16.600000000000023,0.0035599999999999
16.80000000000001,0.007327
17.0,0.0107969999999999
17.19999999999999,0.0135149999999999
17.399999999999977,0.0134169999999999
17.600000000000023,0.0139139999999999
17.80000000000001,0.0135789999999999
18.0,0.012788
18.19999999999999,0.011006
18.399999999999977,0.012373
18.600000000000023,0.0142349999999999
18.80000000000001,0.0151579999999999
19.0,0.0153739999999999
19.19999999999999,0.0142559999999999
19.399999999999977,0.0125799999999999
19.600000000000023,0.00762
19.80000000000001,0.0038319999999999
20.0,0.0011329999999999
20.19999999999999,0.0019509999999999
20.399999999999977,0.0031109999999999
20.600000000000023,0.005122
20.80000000000001,0.005825
21.0,0.0071089999999999
21.19999999999999,0.006732
21.399999999999977,0.005516
21.600000000000023,0.004844
21.80000000000001,0.0051479999999999
22.0,0.005933
22.19999999999999,0.0081189999999999
22.399999999999977,0.0086829999999999
22.600000000000023,0.0075599999999999
22.80000000000001,0.0052949999999999
23.0,0.0043779999999999
23.19999999999999,0.005024
23.399999999999977,0.0064749999999999
23.600000000000023,0.011921
23.80000000000001,0.0147399999999999
24.0,0.016305
24.19999999999999,0.01512
24.399999999999977,0.014958
24.600000000000023,0.0133329999999999
24.80000000000001,0.0119399999999999
25.0,0.010952
25.19999999999999,0.0096929999999999
25.399999999999977,0.0076669999999999
25.600000000000023,0.004547
25.80000000000001,0.0026829999999999
26.0,-6.100000000000549e-05
26.19999999999999,-0.002622
26.399999999999977,-0.003403
26.600000000000023,-0.001344
26.80000000000001,0.002348
27.0,0.0058889999999999
27.19999999999999,0.00763
27.399999999999977,0.00707
27.600000000000023,0.0033659999999999
27.80000000000001,0.0004649999999999
28.0,-0.000382
28.19999999999999,0.0022219999999999
28.399999999999977,0.0042969999999999
28.600000000000023,0.0052449999999999
28.80000000000001,0.006599
29.0,0.008149
29.19999999999999,0.0073889999999999
29.399999999999977,0.0068849999999999
29.600000000000023,0.010145
29.80000000000001,0.0124459999999999
30.0,0.0123879999999999
30.19999999999999,0.0131059999999999
30.399999999999977,0.0148909999999999
30.600000000000023,0.0124589999999999
30.80000000000001,0.008313
31.0,0.0040999999999999
31.19999999999999,-8.10000000000255e-05
31.399999999999977,-0.004269
31.600000000000023,-0.004721
31.80000000000001,-0.0039399999999999
32.0,-0.002536
32.19999999999999,-0.0017759999999999
32.39999999999998,0.0015609999999999
32.60000000000002,0.0053759999999999
32.80000000000001,0.0096809999999999
33.0,0.0128619999999999
33.19999999999999,0.0147439999999999
33.39999999999998,0.014029
33.60000000000002,0.012898
33.80000000000001,0.0118889999999999
34.0,0.0114759999999999
34.19999999999999,0.0142349999999999
34.39999999999998,0.0165789999999999
34.60000000000002,0.0178449999999999
34.80000000000001,0.0171039999999999
35.0,0.0141639999999999
35.19999999999999,0.0098339999999999
35.39999999999998,0.0060809999999999
35.60000000000002,0.0048869999999999
35.80000000000001,0.006956
36.0,0.0105549999999999
36.19999999999999,0.0123449999999999
36.39999999999998,0.0114979999999999
36.60000000000002,0.0080569999999999
36.80000000000001,0.0023879999999999
37.0,-0.00072
37.19999999999999,-0.000789
37.39999999999998,0.0007209999999999
37.60000000000002,0.0026559999999999
37.80000000000001,0.0027239999999999
38.0,0.0032259999999999
38.19999999999999,0.0041519999999999
38.39999999999998,0.0062789999999999
38.60000000000002,0.006713
38.80000000000001,0.0105569999999999
39.0,0.011099
39.19999999999999,0.010037
39.39999999999998,0.0063059999999999
39.60000000000002,0.00408
39.80000000000001,0.0007279999999999
40.0,0.0005919999999999
40.19999999999999,0.0002069999999999
40.39999999999998,0.003219
40.60000000000002,0.0071719999999999
40.80000000000001,0.0093199999999999
41.0,0.008072
41.19999999999999,0.0057859999999999
41.39999999999998,0.001346
41.60000000000002,-0.001335
41.80000000000001,-0.000689
42.0,0.00136
42.19999999999999,0.003661
42.39999999999998,0.0071949999999999
42.60000000000002,0.005991
42.80000000000001,0.0039109999999999
43.0,0.000722
43.19999999999999,-1.5000000000015e-05
43.39999999999998,-0.002609
43.60000000000002,-0.001511
43.80000000000001,-0.000386
44.0,0.002657
44.19999999999999,0.003485
44.39999999999998,0.0064739999999999
44.60000000000002,0.007759
44.80000000000001,0.009016
45.0,0.0102639999999999
45.19999999999999,0.0114299999999999
45.39999999999998,0.011545
45.60000000000002,0.0113989999999999
45.80000000000001,0.0119669999999999
46.0,0.0108969999999999
46.19999999999999,0.0091929999999999
46.39999999999998,0.009564
46.60000000000002,0.01228
46.80000000000001,0.0124709999999999
47.0,0.012184
47.19999999999999,0.0126269999999999
47.39999999999998,0.0098799999999999
47.60000000000002,0.006018
47.80000000000001,0.004825
48.0,0.0043149999999999
48.19999999999999,0.0039959999999999
48.39999999999998,0.0062299999999999
48.60000000000002,0.004265
48.80000000000001,0.0011849999999999
49.0,-0.001365
49.19999999999999,-0.001144
49.39999999999998,-0.004366
49.60000000000002,-0.004553
49.80000000000001,-0.003195
50.0,-0.001871
50.19999999999999,-0.003744
50.39999999999998,-0.002857
50.60000000000002,-0.00126
50.80000000000001,0.0003739999999999
51.0,0.001578
51.19999999999999,0.0016809999999999
51.39999999999998,0.0031219999999999
51.60000000000002,0.0051349999999999
51.80000000000001,0.0055919999999999
52.0,0.0057949999999999
52.19999999999999,0.0055809999999999
52.39999999999998,0.0043359999999999
52.60000000000002,0.0024669999999999
52.80000000000001,0.000306
53.0,0.0003959999999999
53.19999999999999,0.0040819999999999
53.39999999999998,0.006572
53.60000000000002,0.0096069999999999
53.80000000000001,0.012981
54.0,0.012456
54.19999999999999,0.0106849999999999
54.39999999999998,0.009458
54.60000000000002,0.0078819999999999
54.80000000000001,0.0061449999999999
55.0,0.0057599999999999
55.19999999999999,0.0055189999999999
55.39999999999998,0.0040029999999999
55.60000000000002,0.0010799999999999
55.80000000000001,-0.002571
56.0,-0.004487
56.19999999999999,-0.006404
56.39999999999998,-0.007216
56.60000000000002,-0.007347
56.80000000000001,-0.005101
57.0,-0.003543
57.200000000000045,-0.000271
57.39999999999998,0.003817
57.60000000000002,0.0056989999999999
57.79999999999996,0.0050939999999999
58.0,0.0037989999999999
58.200000000000045,0.0007869999999999
58.39999999999998,-0.001847
58.60000000000002,-0.003152
58.79999999999996,-0.003158
59.0,-0.001801
59.200000000000045,0.0014379999999999
59.39999999999998,0.0043109999999999
59.60000000000002,0.0075229999999999
59.79999999999996,0.0088619999999999
60.0,0.0084479999999999
60.200000000000045,0.0062409999999999
60.39999999999998,0.0027779999999999
60.60000000000002,0.0022519999999999
60.79999999999996,0.0023279999999999
61.0,0.0018509999999999
61.200000000000045,0.0023469999999999
61.39999999999998,0.0064759999999999
61.60000000000002,0.0087219999999999
61.79999999999996,0.010906
62.0,0.0118839999999999
62.200000000000045,0.0097529999999999
62.39999999999998,0.0045919999999999
62.60000000000002,0.000306
62.79999999999996,-0.002374
63.0,-0.004294
63.200000000000045,-0.005261
63.39999999999998,-0.00663
63.60000000000002,-0.005588
63.79999999999996,-0.002607
64.0,0.0027879999999999
64.20000000000005,0.0077039999999999
64.39999999999998,0.011211
64.60000000000002,0.0113389999999999
64.79999999999995,0.0098389999999999
65.0,0.008485
65.20000000000005,0.0086069999999999
65.39999999999998,0.010319
65.60000000000002,0.0126299999999999
65.79999999999995,0.0143499999999999
66.0,0.0134959999999999
66.20000000000005,0.010923
66.39999999999998,0.009062
66.60000000000002,0.008261
66.79999999999995,0.0076339999999999
67.0,0.009394
67.20000000000005,0.0116589999999999
67.39999999999998,0.0107709999999999
67.60000000000002,0.0073289999999999
67.79999999999995,0.0021199999999999
68.0,-0.001373
68.20000000000005,-0.003537
68.39999999999998,-0.00096
68.60000000000002,0.0019149999999999
68.79999999999995,0.0058719999999999
69.0,0.007659
69.20000000000005,0.0102099999999999
69.39999999999998,0.0080509999999999
69.60000000000002,0.0052749999999999
69.79999999999995,0.0043669999999999
70.0,0.0031199999999999
70.20000000000005,0.0022159999999999
70.39999999999998,0.0041479999999999
70.60000000000002,0.0064779999999999
70.79999999999995,0.005545
71.0,0.006128
71.20000000000005,0.0050559999999999
71.39999999999998,0.004097
71.60000000000002,0.0046999999999999
71.79999999999995,0.0060939999999999
72.0,0.0057499999999999
72.20000000000005,0.0034419999999999
72.39999999999998,0.0027679999999999
72.60000000000002,0.0023369999999999
72.79999999999995,0.003186
73.0,0.0033419999999999
73.20000000000005,0.003968
73.39999999999998,0.0037779999999999
73.60000000000002,0.0023119999999999
73.79999999999995,0.0002879999999999
74.0,-0.000319
74.20000000000005,0.0010469999999999
74.39999999999998,-0.000337
74.60000000000002,-0.000789
74.79999999999995,0.0006519999999999
75.0,0.0018069999999999
75.20000000000005,0.0009919999999999
75.39999999999998,0.0005629999999999
75.60000000000002,-0.0009
75.79999999999995,-0.003805
76.0,-0.00507
76.20000000000005,-0.002124
76.39999999999998,0.0026599999999999
76.60000000000002,0.007622
76.79999999999995,0.0097429999999999
77.0,0.010284
77.20000000000005,0.010074
77.39999999999998,0.0091629999999999
77.60000000000002,0.0087759999999999
77.79999999999995,0.009574
78.0,0.0122489999999999
78.20000000000005,0.0126889999999999
78.39999999999998,0.0120999999999999
78.60000000000002,0.008794
78.79999999999995,0.0055669999999999
79.0,0.0008349999999999
79.20000000000005,-0.00215
79.39999999999998,-0.003079
79.60000000000002,-3.0000000000002247e-05
79.79999999999995,0.0058129999999999
80.0,0.0088799999999999
80.20000000000005,0.0115809999999999
80.39999999999998,0.01273
80.60000000000002,0.0112269999999999
80.79999999999995,0.0071019999999999
81.0,0.0043659999999999
81.20000000000005,-0.000348
81.39999999999998,-0.004814
81.60000000000002,-0.005834
81.79999999999995,-0.005114
82.0,-0.0054389999999999
82.20000000000005,-0.004715
82.39999999999998,-0.001875
82.60000000000002,-0.001154
82.79999999999995,-0.003954
83.0,-0.003929
83.20000000000005,-0.001703
83.39999999999998,-0.000528
83.60000000000002,-0.0021089999999999
83.79999999999995,0.0004749999999999
84.0,0.0038939999999999
84.20000000000005,0.0055899999999999
84.39999999999998,0.005908
84.60000000000002,0.0106019999999999
84.79999999999995,0.0160589999999999
85.0,0.0189799999999999
85.20000000000005,0.0192839999999999
85.39999999999998,0.0202219999999999
85.60000000000002,0.0181939999999999
85.79999999999995,0.014759
86.0,0.0129149999999999
86.20000000000005,0.0146369999999999
86.39999999999998,0.013452
86.60000000000002,0.0115209999999999
86.79999999999995,0.009732
87.0,0.0083119999999999
87.20000000000005,0.006566
87.39999999999998,0.0044459999999999
87.60000000000002,0.0044549999999999
87.79999999999995,0.002856
88.0,0.0011019999999999
88.20000000000005,-0.00043
88.39999999999998,0.0015639999999999
88.60000000000002,0.001222
88.79999999999995,0.0020169999999999
89.0,0.0013799999999999
89.20000000000005,-0.000952
89.39999999999998,-0.003769
89.60000000000002,-0.004081
89.79999999999995,-0.003017
90.0,-0.000997
90.20000000000005,0.002188
90.39999999999998,0.0053029999999999
90.60000000000002,0.0083039999999999
90.79999999999995,0.008479
91.0,0.0092269999999999
91.20000000000005,0.0094119999999999
91.39999999999998,0.0110859999999999
91.60000000000002,0.0119429999999999
91.79999999999995,0.012792
92.0,0.0126869999999999
92.20000000000005,0.010464
92.39999999999998,0.005246
92.60000000000002,0.0013609999999999
92.79999999999995,-0.000679
93.0,0.0001879999999999
93.20000000000005,0.0044919999999999
93.39999999999998,0.009991
93.60000000000002,0.0123389999999999
93.79999999999995,0.01278
94.0,0.0104399999999999
94.20000000000005,0.0072309999999999
94.39999999999998,0.0035499999999999
94.60000000000002,0.0055169999999999
94.79999999999995,0.0070129999999999
95.0,0.00796
95.20000000000005,0.0066359999999999
95.39999999999998,0.0071429999999999
95.60000000000002,0.0057659999999999
95.79999999999995,0.0046109999999999
96.0,0.004097
96.20000000000005,0.0044459999999999
96.39999999999998,0.0019769999999999
96.60000000000002,-0.0002769999999999
96.79999999999995,-0.00103
97.0,-0.001406
97.20000000000005,-0.002112
97.39999999999998,-0.001959
97.60000000000002,-0.002658
97.79999999999995,-0.000515
98.0,0.0009859999999999
98.20000000000005,0.0032859999999999
98.39999999999998,0.0058399999999999
98.60000000000002,0.0063629999999999
98.79999999999995,0.0050629999999999
99.0,0.002769
99.20000000000005,0.00197
99.39999999999998,0.0006679999999999
99.60000000000002,0.0016369999999999
99.79999999999995,-0.00027
100.0,-0.000913
100.20000000000005,-0.002218
100.39999999999998,-0.001135
100.60000000000002,-0.000351
100.79999999999995,0.0032239999999999
101.0,0.0054339999999999
101.20000000000005,0.005885
101.39999999999998,0.0073019999999999
101.60000000000002,0.007877
101.79999999999995,0.0055549999999999
102.0,0.0039339999999999
102.20000000000005,0.0060569999999999
102.39999999999998,0.0089219999999999
102.60000000000002,0.0094669999999999
102.79999999999995,0.0087239999999999
103.0,0.0088989999999999
103.20000000000005,0.0095579999999999
103.39999999999998,0.0081679999999999
103.60000000000002,0.0088649999999999
103.79999999999995,0.0114109999999999
104.0,0.0127729999999999
104.20000000000005,0.0087559999999999
104.39999999999998,0.0036479999999999
104.60000000000002,0.0013949999999999
104.79999999999995,0.0012629999999999
105.0,-0.0003049999999999
105.20000000000005,-0.0013039999999999
105.39999999999998,-0.002987
105.60000000000002,-0.00663
105.79999999999995,-0.010035
106.0,-0.009146
106.20000000000005,-0.005063
106.39999999999998,-0.000421
106.60000000000002,0.00524
106.79999999999995,0.0072909999999999
107.0,0.0048759999999999
107.20000000000005,0.0015289999999999
107.39999999999998,0.0018899999999999
107.60000000000002,0.0020319999999999
107.79999999999995,0.0021439999999999
108.0,0.0028029999999999
108.20000000000005,0.0051789999999999
108.39999999999998,0.0032429999999999
108.60000000000002,-0.000401
108.79999999999995,-0.002252
109.0,-0.001344
109.20000000000005,-0.002589
109.39999999999998,-0.002464
109.60000000000002,-0.001935
109.79999999999995,-0.000958
110.0,-0.001156
110.20000000000005,-0.00044
110.39999999999998,0.0011929999999999
110.60000000000002,0.0030549999999999
110.79999999999995,0.0060359999999999
111.0,0.0088279999999999
111.20000000000005,0.0090799999999999
111.39999999999998,0.0078329999999999
111.60000000000002,0.006659
111.79999999999995,0.004636
112.0,0.0027619999999999
112.20000000000005,0.0031219999999999
112.39999999999998,0.0027279999999999
112.60000000000002,0.0028179999999999
112.79999999999995,0.0032659999999999
113.0,0.005215
113.20000000000005,0.005846
113.39999999999998,0.0068529999999999
113.60000000000002,0.0056739999999999
113.79999999999995,0.003151
114.0,-0.000935
114.20000000000005,-0.002359
114.39999999999998,-0.000659
114.60000000000002,0.0002979999999999
114.79999999999995,-0.001731
115.0,-0.002924
115.20000000000005,-0.004471
115.39999999999998,-0.008401
115.60000000000002,-0.010835
115.79999999999995,-0.007758
116.0,-0.005654
116.20000000000005,-0.003645
116.39999999999998,-0.001492
116.60000000000002,0.002358
116.79999999999995,0.003831
117.0,0.0045909999999999
117.20000000000005,0.0032599999999999
117.39999999999998,0.0014919999999999
117.60000000000002,-9.700000000001374e-05
117.79999999999995,0.0005879999999999
118.0,0.0020869999999999
118.20000000000005,0.0041039999999999
118.39999999999998,0.0078799999999999
118.60000000000002,0.0096599999999999
118.79999999999995,0.0097799999999999
119.0,0.0080569999999999
119.20000000000005,0.0066729999999999
119.39999999999998,0.0038989999999999
119.60000000000002,0.0018689999999999
119.79999999999995,-0.001234
120.0,-0.003554
120.20000000000005,-0.004573
120.39999999999998,-0.005031
120.60000000000002,-0.004593
120.79999999999995,-0.0028
121.0,3.199999999997649e-05
121.20000000000005,0.0026739999999999
121.39999999999998,0.004912
121.60000000000002,0.004051
121.79999999999995,0.0021869999999999
122.0,0.002464
122.20000000000005,0.0036699999999999
122.39999999999998,0.0041189999999999
122.60000000000002,0.0067769999999999
122.79999999999995,0.01024
123.0,0.0115319999999999
123.20000000000005,0.0100609999999999
123.39999999999998,0.0081539999999999
123.60000000000002,0.0078319999999999
123.79999999999995,0.0078469999999999
124.0,0.010213
124.20000000000005,0.0106789999999999
124.39999999999998,0.0093759999999999
124.60000000000002,0.008211
124.79999999999995,0.0051039999999999
125.0,-0.000101
125.20000000000005,-0.002035
125.39999999999998,0.001027
125.60000000000002,0.0002959999999999
125.79999999999995,0.001466
126.0,0.0037639999999999
126.20000000000005,0.0053779999999999
126.39999999999998,0.004383
126.60000000000002,0.003713
126.79999999999995,0.0030809999999999
127.0,0.0026599999999999
127.20000000000005,0.0008509999999999
127.39999999999998,0.0006189999999999
127.60000000000002,0.002047
127.79999999999995,0.0041429999999999
128.0,0.0041979999999999
128.20000000000005,0.0048279999999999
128.39999999999998,0.0030319999999999
128.60000000000002,0.0012269999999999
128.79999999999995,-0.001034
129.0,-0.001799
129.20000000000005,-0.002196
129.39999999999998,0.0013249999999999
129.60000000000002,0.0041199999999999
129.79999999999995,0.0074819999999999
130.0,0.0098699999999999
130.20000000000005,0.0119239999999999
130.39999999999998,0.0095939999999999
130.60000000000002,0.0084359999999999
130.79999999999995,0.0054819999999999
131.0,0.0011039999999999
131.20000000000005,-0.002222
131.39999999999998,-0.003331
131.60000000000002,-0.004163
131.79999999999995,-0.004993
132.0,-0.003624
132.20000000000005,-0.002091
132.39999999999998,-0.000916
132.60000000000002,0.0004339999999999
132.79999999999995,0.0009299999999999
133.0,0.0010389999999999
133.20000000000005,0.0006169999999999
133.39999999999998,0.0004109999999999
133.60000000000002,-0.000286
133.79999999999995,0.0027499999999999
134.0,0.004066
134.20000000000005,0.0038349999999999
134.39999999999998,0.0019199999999999
134.60000000000002,0.001692
134.79999999999995,0.0010049999999999
135.0,0.0001229999999999
135.20000000000005,0.0001339999999999
135.39999999999998,0.0022499999999999
135.60000000000002,0.0009909999999999
135.79999999999995,-0.004566
136.0,-0.005279
136.20000000000005,-0.00382
136.39999999999998,-0.004792
136.60000000000002,-0.006357
136.79999999999995,-0.002335
137.0,0.0013279999999999
137.20000000000005,0.0034729999999999
137.39999999999998,0.0071909999999999
137.60000000000002,0.011205
137.79999999999995,0.0094799999999999
138.0,0.006269
138.20000000000005,0.0042249999999999
138.39999999999998,0.001628
138.60000000000002,-0.00041
138.79999999999995,-0.000997
139.0,-0.003168
139.20000000000005,-0.007279
139.39999999999998,-0.009057
139.60000000000002,-0.009553
139.79999999999995,-0.006877
140.0,-0.003428
140.20000000000005,0.0001429999999999
140.39999999999998,0.0011399999999999
140.60000000000002,0.0025609999999999
140.79999999999995,0.0028139999999999
141.0,0.0013099999999999
141.20000000000005,0.0007039999999999
141.39999999999998,0.0002609999999999
141.60000000000002,0.0001559999999999
141.79999999999995,-0.001156
142.0,-0.002388
142.20000000000005,-0.005327
142.39999999999998,-0.007018
142.60000000000002,-0.006584
142.79999999999995,-0.00279
143.0,0.0005269999999999
143.20000000000005,0.0054499999999999
143.39999999999998,0.0080959999999999
143.60000000000002,0.0080839999999999
143.79999999999995,0.0046089999999999
144.0,0.0040499999999999
144.20000000000005,0.0032349999999999
144.39999999999998,0.0028419999999999
144.60000000000002,0.001194
144.79999999999995,0.0032159999999999
145.0,0.0035869999999999
145.20000000000005,0.0041939999999999
145.39999999999998,0.0078509999999999
145.60000000000002,0.010033
145.79999999999995,0.0080419999999999
146.0,0.0060769999999999
146.20000000000005,0.00374
146.39999999999998,0.0003189999999999
146.60000000000002,-0.001299
146.79999999999995,-0.001185
147.0,-0.00132
147.20000000000005,-0.002772
147.39999999999998,-0.005741
147.60000000000002,-0.005671
147.79999999999995,-0.005979
148.0,-0.004305
148.20000000000005,-0.001021
148.39999999999998,0.005134
148.60000000000002,0.0076439999999999
148.79999999999995,0.0087909999999999
149.0,0.007068
149.20000000000005,0.0042569999999999
149.39999999999998,-0.000283
149.60000000000002,-0.003498
149.79999999999995,-0.007819
150.0,-0.0073
150.20000000000005,-0.006031
150.39999999999998,-0.005796
150.60000000000002,-0.006696
150.79999999999995,-0.005367
151.0,-0.005357
151.20000000000005,-0.003815
151.39999999999998,-0.001895
151.60000000000002,-0.000942
151.79999999999995,0.0021309999999999
152.0,0.0047869999999999
152.20000000000005,0.0050559999999999
152.39999999999998,0.0027489999999999
152.60000000000002,0.0035539999999999
152.79999999999995,0.001881
153.0,-0.000982
153.20000000000005,-0.0026629999999999
153.39999999999998,-0.000896
153.60000000000002,-0.001368
153.79999999999995,-0.003648
154.0,-0.005245
154.20000000000005,-0.00761
154.39999999999998,-0.009562
154.60000000000002,-0.009517
154.79999999999995,-0.007005
155.0,-0.005116
155.20000000000005,-0.003425
155.39999999999998,-0.001627
155.60000000000002,-0.0022469999999999
155.79999999999995,-0.001032
156.0,-0.000163
156.20000000000005,0.0001279999999999
156.39999999999998,-0.001995
156.60000000000002,-0.0033569999999999
156.79999999999995,-0.005896
157.0,-0.00782
157.20000000000005,-0.006931
157.39999999999998,-0.003235
157.60000000000002,0.0017909999999999
157.79999999999995,0.0050639999999999
158.0,0.0076449999999999
158.20000000000005,0.0088969999999999
158.39999999999998,0.005302
158.60000000000002,0.003128
158.79999999999995,0.001663
159.0,0.0009649999999999
159.20000000000005,0.0006529999999999
159.39999999999998,0.0038129999999999
159.60000000000002,0.0055769999999999
159.79999999999995,0.005537
160.0,0.0037209999999999
160.20000000000005,0.0009149999999999
160.39999999999998,-0.002024
160.60000000000002,-0.004383
160.79999999999995,-0.004709
161.0,-0.003603
161.20000000000005,-0.005226
161.39999999999998,-0.005566
161.60000000000002,-0.007908
161.79999999999995,-0.008379
162.0,-0.009788
162.20000000000005,-0.007508
162.39999999999998,-0.00689
162.60000000000002,-0.006322
162.79999999999995,-0.005987
163.0,-0.004238
163.20000000000005,-0.002792
163.39999999999998,-0.003214
163.60000000000002,-0.002003
163.79999999999995,-0.002763
164.0,-0.004827
164.20000000000005,-0.008401
164.39999999999998,-0.009244
164.60000000000002,-0.008923
164.79999999999995,-0.006315
165.0,-0.002262
165.20000000000005,0.0005139999999999
165.39999999999998,0.0017559999999999
165.60000000000002,0.0017469999999999
165.79999999999995,0.000195
166.0,-0.000174
166.20000000000005,0.0018199999999999
166.39999999999998,0.0043119999999999
166.60000000000002,0.0078179999999999
166.79999999999995,0.0101309999999999
167.0,0.0075419999999999
167.20000000000005,0.0041189999999999
167.39999999999998,0.0021519999999999
167.60000000000002,4.199999999998649e-05
167.79999999999995,-0.002089
168.0,-0.000597
168.20000000000005,0.0017989999999999
168.39999999999998,0.0030669999999999
168.60000000000002,0.0018939999999999
168.79999999999995,5.499999999999949e-05
169.0,-0.002385
169.20000000000005,-0.003673
169.39999999999998,-0.003771
169.60000000000002,-0.002818
169.79999999999995,-0.0018309999999999
170.0,-0.000997
170.20000000000005,-0.001594
170.39999999999998,-0.000989
170.60000000000002,-0.001256
170.79999999999995,0.0005479999999999
171.0,0.0024239999999999
171.20000000000005,0.0048259999999999
171.39999999999998,0.004659
171.60000000000002,0.0038369999999999
171.79999999999995,0.0022819999999999
172.0,0.0009529999999999
172.20000000000005,-0.00102
172.39999999999998,-0.004485
172.60000000000002,-0.005581
172.79999999999995,-0.005566
173.0,-0.005597
173.20000000000005,-0.003921
173.39999999999998,0.0003519999999999
173.60000000000002,0.0005659999999999
173.79999999999995,-6.20000000000065e-05
174.0,-0.001328
174.20000000000005,-0.003239
174.39999999999998,-0.007189
174.60000000000002,-0.006514
174.79999999999995,-0.005907
175.0,-0.004146
175.20000000000005,-0.005112
175.39999999999998,-0.003707
175.60000000000002,-0.003311
175.79999999999995,-0.001058
176.0,-0.000538
176.20000000000005,0.0025689999999999
176.39999999999998,0.0059479999999999
176.60000000000002,0.0086769999999999
176.79999999999995,0.0088779999999999
177.0,0.0084209999999999
177.20000000000005,0.0075809999999999
177.39999999999998,0.0052599999999999
177.60000000000002,0.001846
177.79999999999995,-0.000508
178.0,-0.000437
178.20000000000005,0.0003469999999999
178.39999999999998,-0.001566
178.60000000000002,-0.002293
178.79999999999995,-0.003981
179.0,-0.005825
179.20000000000005,-0.008614
179.39999999999998,-0.007749
179.60000000000002,-0.006809
179.79999999999995,-0.003505
180.0,-0.000826
180.20000000000005,-0.000422
180.4,-0.001077
180.6,-0.000656
180.79999999999995,-0.00136
181.0,-0.002234
181.20000000000005,-0.00049
181.4,0.0018409999999999
181.6,0.0035979999999999
181.79999999999995,0.0040859999999999
182.0,0.0023679999999999
182.20000000000005,-0.000809
182.4,-0.003152
182.6,-0.002773
182.79999999999995,-0.001669
183.0,2.9000000000001247e-05
183.20000000000005,0.0018629999999999
183.4,0.000861
183.6,-0.002292
183.79999999999995,-0.006237
184.0,-0.006101
184.20000000000005,-0.004108
184.4,-0.000838
184.6,-0.001315
184.79999999999995,-0.00025
185.0,0.0003389999999999
185.20000000000005,0.001682
185.4,0.0029169999999999
185.6,0.005771
185.79999999999995,0.006875
186.0,0.0055789999999999
186.20000000000005,0.0047329999999999
186.4,0.0045939999999999
186.6,0.0043759999999999
186.79999999999995,0.0037489999999999
187.0,0.0056129999999999
187.20000000000005,0.0060499999999999
187.4,0.004385
187.6,0.003707
187.79999999999995,0.0044569999999999
188.0,0.0013689999999999
188.20000000000005,-0.002685
188.4,-0.004656
188.6,-0.005656
188.79999999999995,-0.006728
189.0,-0.00381
189.20000000000005,-0.000301
189.4,0.0027029999999999
189.6,0.003543
189.79999999999995,0.0040399999999999
190.0,0.001249
190.20000000000005,0.0002189999999999
190.4,-0.001011
190.6,0.0006149999999999
190.79999999999995,0.002267
191.0,0.0045209999999999
191.20000000000005,0.006738
191.4,0.0084489999999999
191.6,0.0083369999999999
191.79999999999995,0.006647
192.0,0.0061889999999999
192.20000000000005,0.0031149999999999
192.4,0.0008869999999999
192.6,-9.200000000000874e-05
192.79999999999995,-0.000202
193.0,6.299999999997974e-05
193.20000000000005,-0.000421
193.4,5.299999999999749e-05
193.6,-0.0008879999999999
193.79999999999995,-0.00046
194.0,-0.002711
194.20000000000005,-0.00393
194.4,-0.003994
194.6,-0.004669
194.79999999999995,-0.005416
195.0,-0.004458
195.20000000000005,-0.005598
195.4,-0.007217
195.6,-0.00674
195.79999999999995,-0.005646
196.0,-0.003702
196.20000000000005,0.0011819999999999
196.4,0.0051289999999999
196.6,0.0081599999999999
196.79999999999995,0.0092869999999999
197.0,0.0089529999999999
197.20000000000005,0.005877
197.4,0.0031409999999999
197.6,0.0024169999999999
197.79999999999995,0.003937
198.0,0.005765
198.20000000000005,0.0087819999999999
198.4,0.0089259999999999
198.6,0.0073309999999999
198.79999999999995,0.0034189999999999
199.0,-0.000235
199.20000000000005,-0.003029
199.4,-0.002306
199.6,-0.000338
199.79999999999995,0.0014779999999999
200.0,0.0018159999999999
200.20000000000005,0.0009379999999999
200.4,-0.002436
200.6,-0.004835
200.79999999999995,-0.007478
201.0,-0.007196
201.20000000000005,-0.005668
201.4,-0.00455
201.6,-0.004376
201.79999999999995,-0.004665
202.0,-0.005652
202.20000000000005,-0.005052
202.4,-0.000829
202.6,0.0024689999999999
202.79999999999995,0.0066389999999999
203.0,0.0084459999999999
203.20000000000005,0.0074969999999999
203.4,0.005012
203.6,0.0023669999999999
203.79999999999995,0.0011339999999999
204.0,0.0006339999999999
204.20000000000005,0.001489
204.4,0.0019149999999999
204.6,0.0021039999999999
204.79999999999995,0.0014399999999999
205.0,0.0012469999999999
205.20000000000005,0.0005709999999999
205.4,-0.00035
205.6,-0.003572
205.79999999999995,-0.004774
206.0,-0.006392
206.20000000000005,-0.005941
206.4,-0.005665
206.6,-0.0029689999999999
206.79999999999995,-0.001426
207.0,0.0007879999999999
207.20000000000005,0.0008029999999999
207.4,0.0012659999999999
207.6,0.002935
207.79999999999995,0.003514
208.0,0.0035549999999999
208.20000000000005,0.002402
208.4,0.0004799999999999
208.6,-0.001342
208.79999999999995,-0.004479
209.0,-0.007341
209.20000000000005,-0.007739
209.4,-0.007143
209.6,-0.007948
209.79999999999995,-0.005713
210.0,-0.003287
210.20000000000005,-0.00051
210.4,0.0015339999999999
210.6,0.0029989999999999
210.79999999999995,0.0030919999999999
211.0,0.0050649999999999
211.20000000000005,0.0032369999999999
211.4,0.0005289999999999
211.6,-0.001089
211.79999999999995,-0.003343
212.0,-0.005962
212.20000000000005,-0.006039
212.4,-0.005574
212.6,-0.004921
212.79999999999995,-0.004207
213.0,-0.002021
213.20000000000005,0.001653
213.4,0.0051949999999999
213.6,0.0054
213.79999999999995,0.0059399999999999
214.0,0.0042889999999999
214.20000000000005,2.3999999999996247e-05
214.4,-0.003258
214.6,-0.0039399999999999
214.79999999999995,-0.002656
215.0,-0.002679
215.20000000000005,-0.002828
215.4,-0.003211
215.6,-0.003716
215.79999999999995,-0.005859
216.0,-0.005151
216.20000000000005,-0.002524
216.4,-0.000178
216.6,0.0012539999999999
216.79999999999995,0.0034159999999999
217.0,0.0043319999999999
217.20000000000005,0.0052159999999999
217.4,0.0040499999999999
217.6,0.0036189999999999
217.79999999999995,0.0030819999999999
218.0,0.0037969999999999
218.20000000000005,0.0029379999999999
218.4,0.0018129999999999
218.6,0.0010499999999999
218.79999999999995,-0.000725
219.0,-0.003519
219.20000000000005,-0.005404
219.4,-0.004763
219.6,-0.005463
219.79999999999995,-0.003378
220.0,-0.00241
220.20000000000005,-0.002873
220.4,-0.003404
220.6,-0.003491
220.79999999999995,-0.006241
221.0,-0.007367
221.20000000000005,-0.005856
221.4,-0.005335
221.6,-0.004091
221.79999999999995,-0.003843
222.0,-0.005876
222.20000000000005,-0.008961
222.4,-0.010637
222.6,-0.01197
222.79999999999995,-0.008546
223.0,-0.009087
223.20000000000005,-0.008002
223.4,-0.005487
223.6,-0.001573
223.79999999999995,-0.000383
224.0,0.0056419999999999
224.20000000000005,0.009452
224.4,0.011338
224.6,0.0117749999999999
224.79999999999995,0.0103889999999999
225.0,0.00691
225.20000000000005,0.0045539999999999
225.4,0.0016329999999999
225.6,-0.000113
225.79999999999995,-0.001034
226.0,-0.001804
226.20000000000005,-0.004239
226.4,-0.004913
226.6,-0.008606
226.79999999999995,-0.012477
227.0,-0.013766
227.20000000000005,-0.012241
227.4,-0.010265
227.6,-0.007476
227.79999999999995,-0.007558
228.0,-0.008569
228.20000000000005,-0.009614
228.4,-0.010672
228.6,-0.009396
228.79999999999995,-0.005696
229.0,-0.001552
229.20000000000005,6.999999999979245e-06
229.4,-0.000131
229.6,-0.000993
229.79999999999995,0.0008369999999999
230.0,0.0014199999999999
230.20000000000005,0.0029629999999999
230.4,0.0038719999999999
230.6,0.0034719999999999
230.79999999999995,0.0012179999999999
231.0,-0.000428
231.20000000000005,-0.003446
231.4,-0.004033
231.6,-0.00428
231.79999999999995,-0.003958
232.0,-0.004057
232.20000000000005,-0.000831
232.4,0.0014419999999999
232.6,0.0056089999999999
232.79999999999995,0.00907
233.0,0.011817
233.20000000000005,0.010707
233.4,0.0084979999999999
233.6,0.002937
233.79999999999995,-0.001376
234.0,-0.004855
234.20000000000005,-0.005309
234.4,-0.006286
234.6,-0.00847
234.79999999999995,-0.00831
235.0,-0.008085
235.20000000000005,-0.00841
235.4,-0.005714
235.6,0.0005019999999999
235.79999999999995,0.0025959999999999
236.0,0.0045129999999999
236.20000000000005,0.0080499999999999
236.4,0.0104779999999999
236.6,0.0113099999999999
236.79999999999995,0.0109339999999999
237.0,0.0111499999999999
237.20000000000005,0.010062
237.4,0.008184
237.6,0.006703
237.79999999999995,0.0066459999999999
238.0,0.0067489999999999
238.20000000000005,0.0053929999999999
238.4,0.005846
238.6,0.0043979999999999
238.79999999999995,0.0045259999999999
239.0,0.0028689999999999
239.20000000000005,0.0012229999999999
239.4,-0.0018589999999999
239.6,-0.003453
239.79999999999995,-0.002632
240.0,-8.299999999999974e-05
240.20000000000005,0.0032219999999999
240.4,0.006678
240.6,0.010425
240.79999999999995,0.0101309999999999
241.0,0.0096349999999999
241.20000000000005,0.007796
241.4,0.004769
241.6,0.0031709999999999
241.79999999999995,0.0017909999999999
242.0,0.0009599999999999
242.20000000000005,0.0018509999999999
242.4,0.002709
242.6,0.0004359999999999
242.79999999999995,-0.001743
243.0,-0.00272
243.20000000000005,-0.003806
243.4,-0.004835
243.6,-0.003435
243.79999999999995,-0.001932
244.0,-0.000839
244.20000000000005,-0.001236
244.4,-0.001448
244.6,-0.004715
244.79999999999995,-0.007751
245.0,-0.010863
245.20000000000005,-0.011321
245.4,-0.010106
245.6,-0.00683
245.79999999999995,-0.002562
246.0,-0.001464
246.20000000000005,-0.002739
246.4,-0.004313
246.6,-0.005845
246.79999999999995,-0.007227
247.0,-0.006249
247.20000000000005,-0.003223
247.4,-5.000000000005e-06
247.6,0.0041309999999999
247.79999999999995,0.006626
248.0,0.0061449999999999
248.20000000000005,0.0027579999999999
248.4,-1.6000000000016e-05
248.6,-0.002454
248.79999999999995,-0.003041
249.0,-0.004609
249.20000000000005,-0.006159
249.4,-0.008534
249.6,-0.009092
249.79999999999995,-0.010994
250.0,-0.008749
250.20000000000005,-0.004783
250.4,-0.002242
250.6,-0.002104
250.79999999999995,-0.000528
251.0,-0.001163
251.20000000000005,-0.003186
251.4,-0.005372
251.6,-0.005346
251.79999999999995,-0.005584
252.0,-0.003324
252.20000000000005,-0.004118
252.4,-0.004862
252.6,-0.007459
252.79999999999995,-0.008919
253.0,-0.011479
253.20000000000005,-0.007889
253.4,-0.003598
253.6,0.0020979999999999
253.79999999999995,0.004483
254.0,0.0043619999999999
254.20000000000005,0.0002459999999999
254.4,-0.002931
254.6,-0.006375
254.79999999999995,-0.007661
255.0,-0.006758
255.20000000000005,-0.005196
255.4,-0.005256
255.6,-0.005729
255.79999999999995,-0.006395
256.0,-0.005612
256.20000000000005,-0.004563
256.4,-0.002581
256.6,-0.001567
256.79999999999995,-0.002784
257.0,-0.004197
257.20000000000005,-0.005663
257.4,-0.008426
257.6,-0.01182
257.79999999999995,-0.009999
258.0,-0.009426
258.20000000000005,-0.006617
258.4,-0.00405
258.6,-0.000179
258.79999999999995,0.0004619999999999
259.0,0.0021449999999999
259.20000000000005,0.0022179999999999
259.4,0.0008289999999999
259.6,0.0013729999999999
259.79999999999995,0.0011729999999999
260.0,0.0001789999999999
260.20000000000005,-0.001133
260.4,0.0003159999999999
260.6,9.9999999999989e-05
260.79999999999995,-0.000946
261.0,-0.002317
261.20000000000005,-0.003027
261.4,-0.004232
261.6,-0.007368
261.79999999999995,-0.00853
262.0,-0.009179
262.20000000000005,-0.00805
262.4,-0.005921
262.6,-0.003475
262.79999999999995,-0.001599
263.0,0.0008719999999999
263.20000000000005,-5.000000000002225e-05
263.4,-0.003708
263.6,-0.005754
263.79999999999995,-0.00667
264.0,-0.007751
264.20000000000005,-0.006516
264.4,-0.003899
264.6,-0.003348
264.79999999999995,-0.005032
265.0,-0.004632
265.20000000000005,-0.003528
265.4,-0.003688
265.6,-0.003054
265.79999999999995,-0.000426
266.0,0.0008189999999999
266.20000000000005,7.599999999999274e-05
266.4,-0.000485
266.6,-0.002058
266.79999999999995,-0.006473
267.0,-0.010998
267.20000000000005,-0.013786
267.4,-0.0134589999999999
267.6,-0.012284
267.79999999999995,-0.009634
268.0,-0.007036
268.20000000000005,-0.00344
268.4,-0.002463
268.6,-0.003717
268.79999999999995,-0.005414
269.0,-0.0058
269.20000000000005,-0.007143
269.4,-0.0072
269.6,-0.0044399999999999
269.79999999999995,0.0003129999999999
270.0,0.002551
270.20000000000005,0.0043469999999999
270.4,0.0057869999999999
270.6,0.0069879999999999
270.79999999999995,0.0061039999999999
271.0,0.0049109999999999
271.20000000000005,0.003161
271.4,0.0011969999999999
271.6,-0.001093
271.79999999999995,-0.002799
272.0,-0.003644
272.20000000000005,-0.004566
272.4,-0.004914
272.6,-0.004997
272.79999999999995,-0.002862
273.0,-0.001214
273.20000000000005,-0.000893
273.4,0.0007509999999999
273.6,0.004269
273.79999999999995,0.0047619999999999
274.0,0.004661
274.20000000000005,0.006493
274.4,0.0087869999999999
274.6,0.0083359999999999
274.79999999999995,0.0076339999999999
275.0,0.006539
275.20000000000005,0.0054649999999999
275.4,0.0028179999999999
275.6,0.002991
275.79999999999995,0.0023489999999999
276.0,0.002987
276.20000000000005,0.0018759999999999
276.4,-5.300000000002525e-05
276.6,-0.004002
276.79999999999995,-0.006026
277.0,-0.007174
277.20000000000005,-0.00545
277.4,-0.002176
277.6,0.0018509999999999
277.79999999999995,0.0025229999999999
278.0,0.0019049999999999
278.20000000000005,0.0017519999999999
278.4,0.0008289999999999
278.6,-0.002199
278.79999999999995,-0.000699
279.0,0.0024339999999999
279.20000000000005,0.0032659999999999
279.4,0.001914
279.6,0.002964
279.79999999999995,0.0028179999999999
280.0,0.0005009999999999
280.20000000000005,-0.003453
280.4,-0.006435
280.6,-0.008467
280.79999999999995,-0.008377
281.0,-0.006515
281.20000000000005,-0.00302
281.4,0.0015339999999999
281.6,0.0031459999999999
281.79999999999995,-0.000343
282.0,-0.004081
282.20000000000005,-0.006175
282.4,-0.009177
282.6,-0.0106559999999999
282.79999999999995,-0.009003
283.0,-0.008238
283.20000000000005,-0.007932
283.4,-0.005577
283.6,-0.004494
283.79999999999995,-0.003389
284.0,-0.001392
284.20000000000005,0.0023589999999999
284.4,0.0035189999999999
284.6,0.0040669999999999
284.79999999999995,0.0012319999999999
285.0,-0.002807
285.20000000000005,-0.008971
285.4,-0.011858
285.6,-0.013863
285.79999999999995,-0.013287
286.0,-0.011438
286.20000000000005,-0.010073
286.4,-0.011156
286.6,-0.010871
286.79999999999995,-0.01163
287.0,-0.011361
287.20000000000005,-0.009916
287.4,-0.007785
287.6,-0.006897
287.79999999999995,-0.006932
288.0,-0.006603
288.20000000000005,-0.007467
288.4,-0.007178
288.6,-0.009025
288.79999999999995,-0.009112
289.0,-0.009118
289.20000000000005,-0.007841
289.4,-0.0067
289.6,-0.003027
289.79999999999995,0.0002319999999999
290.0,0.0011259999999999
290.20000000000005,0.0008299999999999
290.4,-0.001175
290.6,-0.003643
290.79999999999995,-0.004205
291.0,-0.003887
291.20000000000005,-0.00452
291.4,-0.004527
291.6,-0.004463
291.79999999999995,-0.005572
292.0,-0.008929
292.20000000000005,-0.010491
292.4,-0.010743
292.6,-0.009077
292.79999999999995,-0.006917
293.0,-0.002036
293.20000000000005,0.0016959999999999
293.4,0.0043969999999999
293.6,0.0056499999999999
293.79999999999995,0.0057489999999999
294.0,0.0048569999999999
294.20000000000005,0.003877
294.4,0.0018239999999999
294.6,-0.000418
294.79999999999995,-0.002748
295.0,-0.004993
295.19999999999993,-0.00479
295.4,-0.006927
295.5999999999999,-0.009566
295.79999999999995,-0.01186
295.9999999999999,-0.014937
296.19999999999993,-0.01527
296.39999999999986,-0.012679
296.5999999999999,-0.01005
296.79999999999995,-0.00815
296.9999999999999,-0.007725
297.19999999999993,-0.007654
297.39999999999986,-0.006577
297.5999999999999,-0.005375
297.79999999999995,-0.005221
297.9999999999999,-0.006257
298.19999999999993,-0.009173
298.39999999999986,-0.015383
298.5999999999999,-0.017545
298.79999999999995,-0.016789
298.9999999999999,-0.012558
299.19999999999993,-0.007082
299.39999999999986,-0.001002
299.5999999999999,-0.001447
299.79999999999995,-0.003704
299.9999999999999,-0.009973
300.19999999999993,-0.013942
300.39999999999986,-0.016133
300.5999999999999,-0.015145
300.79999999999995,-0.012714
300.9999999999999,-0.008137
301.19999999999993,-0.008011
301.39999999999986,-0.01093
301.5999999999999,-0.013955
301.79999999999995,-0.014624
301.9999999999999,-0.015651
302.19999999999993,-0.015179
302.39999999999986,-0.013479
302.5999999999999,-0.013737
302.79999999999995,-0.017199
302.9999999999999,-0.019231
303.19999999999993,-0.01894
303.39999999999986,-0.018176
303.5999999999999,-0.016662
303.79999999999995,-0.013197
303.9999999999999,-0.009111
304.19999999999993,-0.00799
304.39999999999986,-0.007833
304.5999999999999,-0.009483
304.79999999999995,-0.01334
304.9999999999999,-0.017663
305.19999999999993,-0.019379
305.39999999999986,-0.018506
305.5999999999999,-0.014591
305.79999999999995,-0.01159
305.9999999999999,-0.011288
306.19999999999993,-0.012696
306.39999999999986,-0.0166
306.5999999999999,-0.018533
306.79999999999995,-0.017705
306.9999999999999,-0.013928
307.19999999999993,-0.011764
307.39999999999986,-0.007923
307.5999999999999,-0.005463
307.79999999999995,-0.004175
307.9999999999999,-0.004472
308.19999999999993,-0.004305
308.39999999999986,-0.005436
308.5999999999999,-0.007249
308.79999999999995,-0.010455
308.9999999999999,-0.011339
309.19999999999993,-0.011229
309.39999999999986,-0.010877
309.5999999999999,-0.011613
309.79999999999995,-0.01101
309.9999999999999,-0.011494
310.19999999999993,-0.011749
310.39999999999986,-0.012884
310.5999999999999,-0.010344
310.79999999999995,-0.008871
310.9999999999999,-0.008033
311.19999999999993,-0.00763
311.39999999999986,-0.006125
311.5999999999999,-0.007185
311.79999999999995,-0.006079
311.9999999999999,-0.006219
312.19999999999993,-0.006012
312.39999999999986,-0.005629
312.5999999999999,-0.004781
312.79999999999995,-0.004834
312.9999999999999,-0.006184
313.19999999999993,-0.007678
313.39999999999986,-0.008269
313.5999999999999,-0.00718
313.79999999999995,-0.007471
313.9999999999999,-0.005699
314.19999999999993,-0.003162
314.39999999999986,-0.002599
314.5999999999999,-0.003286
314.79999999999995,-0.001426
314.9999999999999,-0.001106
315.19999999999993,-0.002475
315.39999999999986,-0.003851
315.5999999999999,-0.005936
315.79999999999995,-0.01047
315.9999999999999,-0.013576
316.19999999999993,-0.016559
316.39999999999986,-0.017474
316.5999999999999,-0.018182
316.79999999999995,-0.016895
316.9999999999999,-0.015018
317.19999999999993,-0.011562
317.39999999999986,-0.009291
317.5999999999999,-0.008776
317.79999999999995,-0.008527
317.9999999999999,-0.008516
318.19999999999993,-0.00774
318.39999999999986,-0.008063
318.5999999999999,-0.007667
318.79999999999995,-0.009803
318.9999999999999,-0.012698
319.19999999999993,-0.016266
319.39999999999986,-0.017842
319.5999999999999,-0.019192
319.79999999999995,-0.015897
319.9999999999999,-0.012955
320.19999999999993,-0.01047
320.39999999999986,-0.009683
320.5999999999999,-0.008511
320.79999999999995,-0.010773
320.9999999999999,-0.012245
321.19999999999993,-0.014995
321.39999999999986,-0.017044
321.5999999999999,-0.017131
321.79999999999995,-0.013661
321.9999999999999,-0.011259
322.19999999999993,-0.006888
322.39999999999986,-0.00197
322.5999999999999,0.0005509999999999
322.79999999999995,-0.001299
322.9999999999999,-0.00313
323.19999999999993,-0.005945
323.39999999999986,-0.008517
323.5999999999999,-0.011341
323.79999999999995,-0.012909
323.9999999999999,-0.011614
324.19999999999993,-0.00959
324.39999999999986,-0.00949
324.5999999999999,-0.008895
324.79999999999995,-0.005439
324.9999999999999,-0.003362
325.19999999999993,-0.005008
325.39999999999986,-0.005349
325.5999999999999,-0.005934
325.79999999999995,-0.007581
325.9999999999999,-0.007232
326.19999999999993,-0.003699
326.39999999999986,-0.002246
326.5999999999999,0.0004499999999999
326.79999999999995,2.7999999999958614e-05
326.9999999999999,-0.00319
327.19999999999993,-0.005436
327.39999999999986,-0.004506
327.5999999999999,-0.005963
327.79999999999995,-0.005248
327.9999999999999,-0.001582
328.19999999999993,-6.600000000005213e-05
328.39999999999986,-0.001423
328.5999999999999,-0.002632
328.79999999999995,-0.003301
328.9999999999999,-0.005836
329.19999999999993,-0.005817
329.39999999999986,-0.006435
329.5999999999999,-0.008207
329.79999999999995,-0.011032
329.9999999999999,-0.011653
330.19999999999993,-0.014398
330.39999999999986,-0.015554
330.5999999999999,-0.013152
330.79999999999995,-0.009951
330.9999999999999,-0.009465
331.19999999999993,-0.010434
331.39999999999986,-0.010093
331.5999999999999,-0.010724
331.79999999999995,-0.013755
331.9999999999999,-0.016876
332.19999999999993,-0.017626
332.39999999999986,-0.017119
332.5999999999999,-0.015337
332.79999999999995,-0.010271
332.9999999999999,-0.004798
333.19999999999993,-0.000803
333.39999999999986,-0.002541
333.5999999999999,-0.004825
333.79999999999995,-0.007878
333.9999999999999,-0.010231
334.19999999999993,-0.010727
334.39999999999986,-0.007367
334.5999999999999,-0.004615
334.79999999999995,-0.002937
334.9999999999999,-0.002389
335.19999999999993,-0.0037
335.39999999999986,-0.00488
335.5999999999999,-0.007068
335.79999999999995,-0.008342
335.9999999999999,-0.008251
336.19999999999993,-0.009367
336.39999999999986,-0.011594
336.5999999999999,-0.011944
336.79999999999995,-0.011116
336.9999999999999,-0.010947
337.19999999999993,-0.008453
337.39999999999986,-0.006714
337.5999999999999,-0.007857
337.79999999999995,-0.011218
337.9999999999999,-0.01362
338.19999999999993,-0.015776
338.39999999999986,-0.01495
338.5999999999999,-0.012445
338.79999999999995,-0.00869
338.9999999999999,-0.005768
339.19999999999993,-0.003926
339.39999999999986,-0.005088
339.5999999999999,-0.005423
339.79999999999995,-0.005855
339.9999999999999,-0.008384
340.19999999999993,-0.009273
340.39999999999986,-0.007836
340.5999999999999,-0.008566
340.79999999999995,-0.011371
340.9999999999999,-0.011162
341.19999999999993,-0.010688
341.39999999999986,-0.00961
341.5999999999999,-0.008561
341.79999999999995,-0.006159
341.9999999999999,-0.005162
342.19999999999993,-0.004348
342.39999999999986,-0.006341
342.5999999999999,-0.008018
342.79999999999995,-0.008999
342.9999999999999,-0.010518
343.19999999999993,-0.014763
343.39999999999986,-0.016249
343.5999999999999,-0.015342
343.79999999999995,-0.014851
343.9999999999999,-0.014178
344.19999999999993,-0.011843
344.39999999999986,-0.008832
344.5999999999999,-0.006299
344.79999999999995,-0.003643
344.9999999999999,-0.003036
345.19999999999993,-0.002923
345.39999999999986,-0.006908
345.5999999999999,-0.009826
345.79999999999995,-0.011114
345.9999999999999,-0.00992
346.19999999999993,-0.009227
346.39999999999986,-0.008191
346.5999999999999,-0.005358
346.79999999999995,-0.004747
346.9999999999999,-0.005316
347.19999999999993,-0.003501
347.39999999999986,-0.000309
347.5999999999999,-0.001273
347.79999999999995,-0.003753
347.9999999999999,-0.005381
348.19999999999993,-0.008076
348.39999999999986,-0.010478
348.5999999999999,-0.011313
348.79999999999995,-0.009115
348.9999999999999,-0.006817
349.19999999999993,-0.005066
349.39999999999986,-0.003983
349.5999999999999,-0.002739
349.79999999999995,-0.002905
349.9999999999999,-0.001641
350.19999999999993,-0.000992
350.39999999999986,0.0010559999999999
350.5999999999999,-0.000118
350.79999999999995,-0.00048
350.9999999999999,-0.001802
351.19999999999993,0.0010579999999999
351.39999999999986,0.0023109999999999
351.5999999999999,0.0050589999999999
351.79999999999995,0.0044739999999999
351.9999999999999,0.0043659999999999
352.19999999999993,0.0012309999999999
352.39999999999986,-0.002551
352.5999999999999,-0.004179
352.79999999999995,-0.002745
352.9999999999999,-0.002591
353.19999999999993,-0.002776
353.39999999999986,-0.000654
353.5999999999999,-0.001586
353.79999999999995,-0.006586
353.9999999999999,-0.007816
354.19999999999993,-0.008652
354.39999999999986,-0.011646
354.5999999999999,-0.013809
354.79999999999995,-0.011551
354.9999999999999,-0.011613
355.19999999999993,-0.010512
355.39999999999986,-0.005587
355.5999999999999,-0.001606
355.79999999999995,-0.000688
355.9999999999999,-0.001533
356.19999999999993,-0.004584
356.39999999999986,-0.010891
356.5999999999999,-0.013454
356.79999999999995,-0.011116
356.9999999999999,-0.008014
357.19999999999993,-0.005889
357.39999999999986,-0.002224
357.5999999999999,-0.000774
357.79999999999995,-0.000601
357.9999999999999,-0.00148
358.19999999999993,-0.001022
358.39999999999986,-0.001545
358.5999999999999,-0.00185
358.79999999999995,-0.003223
358.9999999999999,-0.003414
359.19999999999993,-0.002491
359.39999999999986,-0.001535
359.5999999999999,-0.002734
359.79999999999995,-0.003527
359.9999999999999,-0.002884
360.19999999999993,-0.003267
360.3999999999999,-0.005669
360.5999999999999,-0.005673
360.8,-0.00551
360.9999999999999,-0.006076
361.19999999999993,-0.005814
361.3999999999999,-0.003936
361.5999999999999,-0.0035
361.8,-0.005268
361.9999999999999,-0.008628
362.19999999999993,-0.009923
362.3999999999999,-0.010353
362.5999999999999,-0.010259
362.8,-0.009946
362.9999999999999,-0.007153
363.19999999999993,-0.006301
363.3999999999999,-0.00726
363.5999999999999,-0.008763
363.8,-0.00891
363.9999999999999,-0.011445
364.19999999999993,-0.014135
364.3999999999999,-0.015099
364.5999999999999,-0.012446
364.8,-0.011976
364.9999999999999,-0.011684
365.19999999999993,-0.009889
365.3999999999999,-0.00846
365.5999999999999,-0.009581
365.8,-0.007175
365.9999999999999,-0.002278
366.19999999999993,-0.001218
366.3999999999999,-0.002219
366.5999999999999,-0.003256
366.8,-0.00461
366.9999999999999,-0.006864
367.19999999999993,-0.005419
367.3999999999999,-0.003671
367.5999999999999,-0.001088
367.8,0.0002599999999999
367.9999999999999,9.899999999994637e-05
368.19999999999993,-0.001602
368.3999999999999,-0.003294
368.5999999999999,-0.005639
368.8,-0.005569
368.9999999999999,-0.004757
369.19999999999993,-0.005467
369.3999999999999,-0.005309
369.5999999999999,-0.006082
369.8,-0.008394
369.9999999999999,-0.010371
370.19999999999993,-0.008881
370.3999999999999,-0.007108
370.5999999999999,-0.004051
370.8,-0.003288
370.9999999999999,-0.004588
371.19999999999993,-0.006492
371.3999999999999,-0.010775
371.5999999999999,-0.014469
371.8,-0.017359
371.9999999999999,-0.01627
372.19999999999993,-0.017509
372.3999999999999,-0.015091
372.5999999999999,-0.012255
372.8,-0.009231
372.9999999999999,-0.008115
373.19999999999993,-0.006804
373.3999999999999,-0.006348
373.5999999999999,-0.009316
373.8,-0.009866
373.9999999999999,-0.009522
374.19999999999993,-0.008111
374.3999999999999,-0.0065
374.5999999999999,-0.003945
374.8,-0.004584
374.9999999999999,-0.005699
375.19999999999993,-0.004726
375.3999999999999,-0.003408
375.5999999999999,-0.003717
375.8,-0.002645
375.9999999999999,-0.000931
376.19999999999993,-0.001997
376.3999999999999,-0.003212
376.5999999999999,-0.000787
376.8,0.0010729999999999
376.9999999999999,0.0022829999999999
377.19999999999993,0.0033459999999999
377.3999999999999,0.0057269999999999
377.5999999999999,0.0081379999999999
377.8,0.0064999999999999
377.9999999999999,0.0031679999999999
378.19999999999993,0.0008769999999999
378.3999999999999,-5.000000000046634e-06
378.5999999999999,-0.003454
378.8,-0.002282
378.9999999999999,-0.001403
379.19999999999993,-0.00185
379.3999999999999,-0.003943
379.5999999999999,-0.006065
379.8,-0.007988
379.9999999999999,-0.007387
380.19999999999993,-0.007224
380.3999999999999,-0.008202
380.5999999999999,-0.006973
380.8,-0.00596
380.9999999999999,-0.0073
381.19999999999993,-0.006246
381.3999999999999,-0.005081
381.5999999999999,-0.00718
381.8,-0.010036
381.9999999999999,-0.010034
382.19999999999993,-0.010444
382.3999999999999,-0.010471
382.5999999999999,-0.008717
382.8,-0.00621
382.9999999999999,-0.006919
383.19999999999993,-0.008194
383.3999999999999,-0.010077
383.5999999999999,-0.009688
383.8,-0.00857
383.9999999999999,-0.00804
384.19999999999993,-0.009079
384.3999999999999,-0.008381
384.5999999999999,-0.006661
384.8,-0.006905
384.9999999999999,-0.00742
385.19999999999993,-0.006172
385.3999999999999,-0.006472
385.5999999999999,-0.005926
385.8,-0.005822
385.9999999999999,-0.002628
386.19999999999993,-0.001526
386.3999999999999,-0.000884
386.5999999999999,-0.003611
386.8,-0.004976
386.9999999999999,-0.006415
387.19999999999993,-0.006083
387.3999999999999,-0.003449
387.5999999999999,-0.000854
387.8,-0.000758
387.9999999999999,-0.001551
388.19999999999993,0.0004989999999999
388.3999999999999,0.0009619999999999
388.5999999999999,0.0009999999999999
388.8,0.0017379999999999
388.9999999999999,0.0033429999999999
389.19999999999993,0.0006809999999999
389.3999999999999,-0.003345
389.5999999999999,-0.006695
389.8,-0.008012
389.9999999999999,-0.007765
390.19999999999993,-0.005847
390.3999999999999,-0.004043
390.5999999999999,-0.0033
390.8,-0.002264
390.9999999999999,-0.003443
391.19999999999993,-0.004726
391.3999999999999,-0.005733
391.5999999999999,-0.006711
391.8,-0.009733
391.9999999999999,-0.011878
392.19999999999993,-0.014036
392.3999999999999,-0.014339
392.5999999999999,-0.012732
392.8,-0.011158
392.9999999999999,-0.007519
393.19999999999993,-0.004166
393.3999999999999,-0.001293
393.5999999999999,-0.001484
393.8,0.0018219999999999
393.9999999999999,0.0029349999999999
394.19999999999993,0.0032489999999999
394.3999999999999,0.0004839999999999
394.5999999999999,-0.000847
394.8,-0.004537
394.9999999999999,-0.00545
395.19999999999993,-0.006021
395.3999999999999,-0.003442
395.5999999999999,-0.002405
395.8,-3.900000000005288e-05
395.9999999999999,-0.002487
396.19999999999993,-0.004324
396.3999999999999,-0.006647
396.5999999999999,-0.005536
396.8,-0.004629
396.9999999999999,-0.004703
397.19999999999993,-0.007508
397.3999999999999,-0.01024
397.5999999999999,-0.012939
397.8,-0.01421
397.9999999999999,-0.012988
398.19999999999993,-0.009713
398.3999999999999,-0.008164
398.5999999999999,-0.008757
398.8,-0.009408
398.9999999999999,-0.010425
399.19999999999993,-0.011513
399.3999999999999,-0.012923
399.5999999999999,-0.011588
399.8,-0.012187
399.9999999999999,-0.011493
400.19999999999993,-0.010547
400.3999999999999,-0.007093
400.5999999999999,-0.004837
400.8,-0.003573
400.9999999999999,-0.003624
401.19999999999993,-0.003428
401.3999999999999,-0.004096
401.5999999999999,-0.004218
401.8,-0.003093
401.9999999999999,-0.002895
402.19999999999993,-0.001231
402.3999999999999,-0.000314
402.5999999999999,-0.001473
402.8,-0.002402
402.9999999999999,-2.400000000005176e-05
403.19999999999993,0.0008059999999999
403.3999999999999,0.0003339999999999
403.5999999999999,0.0005099999999999
403.8,-0.000392
403.9999999999999,-0.003627
404.19999999999993,-0.008213
404.3999999999999,-0.008978
404.5999999999999,-0.00919
404.8,-0.00851
404.9999999999999,-0.007696
405.19999999999993,-0.007368
405.3999999999999,-0.00835
405.5999999999999,-0.010228
405.8,-0.011769
405.9999999999999,-0.013175
406.19999999999993,-0.012293
406.3999999999999,-0.012132
406.5999999999999,-0.011264
406.8,-0.012174
406.9999999999999,-0.01219
407.19999999999993,-0.011123
407.3999999999999,-0.008793
407.5999999999999,-0.007023
407.8,-0.007614
407.9999999999999,-0.007785
408.19999999999993,-0.008741
408.3999999999999,-0.01017
408.5999999999999,-0.011798
408.8,-0.008118
408.9999999999999,-0.004779
409.19999999999993,-0.002813
409.3999999999999,-0.001015
409.5999999999999,0.0011839999999999
409.8,-0.001937
409.9999999999999,-0.006811
410.19999999999993,-0.011472
410.3999999999999,-0.015104
410.5999999999999,-0.016127
410.8,-0.013176
410.9999999999999,-0.010366
411.19999999999993,-0.006751
411.3999999999999,-0.004843
411.5999999999999,-0.005629
411.8,-0.008369
411.9999999999999,-0.011626
412.19999999999993,-0.014645
412.3999999999999,-0.014647
412.5999999999999,-0.013011
412.8,-0.009539
412.9999999999999,-0.005204
413.19999999999993,-0.000283
413.3999999999999,0.0025809999999999
413.5999999999999,0.0009059999999999
413.8,0.0005099999999999
413.9999999999999,-0.001938
414.19999999999993,-0.007194
414.3999999999999,-0.012526
414.5999999999999,-0.01268
414.8,-0.013659
414.9999999999999,-0.012486
415.19999999999993,-0.009
415.3999999999999,-0.006986
415.5999999999999,-0.005727
415.8,-0.006335
415.9999999999999,-0.00676
416.19999999999993,-0.006058
416.3999999999999,-0.006824
416.5999999999999,-0.006918
416.8,-0.00549
416.9999999999999,-0.003592
417.19999999999993,-0.005658
417.3999999999999,-0.007276
417.5999999999999,-0.011832
417.8,-0.014923
417.9999999999999,-0.01571
418.19999999999993,-0.015468
418.3999999999999,-0.01266
418.5999999999999,-0.008333
418.8,-0.007956
418.9999999999999,-0.011034
419.19999999999993,-0.011151
419.3999999999999,-0.011164
419.5999999999999,-0.012265
419.8,-0.011045
419.9999999999999,-0.010127
420.19999999999993,-0.010521
420.3999999999999,-0.011653
420.5999999999999,-0.011246
420.8,-0.007752
420.9999999999999,-0.002142
421.19999999999993,0.0042549999999999
421.3999999999999,0.0075399999999999
421.5999999999999,0.0091479999999999
421.8,0.0073469999999999
421.9999999999999,0.0041799999999999
422.19999999999993,-0.000657
422.3999999999999,-0.001671
422.5999999999999,-0.001847
422.8,-0.00084
422.9999999999999,0.0004589999999999
423.19999999999993,-0.00047
423.3999999999999,-0.00123
423.5999999999999,-0.001879
423.8,-0.003371
423.9999999999999,-0.007128
424.19999999999993,-0.008621
424.3999999999999,-0.008364
424.5999999999999,-0.006856
424.8,-0.007132
424.9999999999999,-0.004667
425.19999999999993,-0.003147
425.3999999999999,-0.004036
425.5999999999999,-0.006692
425.8,-0.00729
425.9999999999999,-0.008965
426.19999999999993,-0.009489
426.3999999999999,-0.008283
426.5999999999999,-0.007445
426.8,-0.006415
426.9999999999999,-0.005934
427.19999999999993,-0.005082
427.3999999999999,-0.00633
427.5999999999999,-0.005957
427.8,-0.00665
427.9999999999999,-0.006378
428.19999999999993,-0.006799
428.3999999999999,-0.00609
428.5999999999999,-0.005151
428.8,-0.004915
428.9999999999999,-0.002855
429.19999999999993,0.0006129999999999
429.3999999999999,0.0026429999999999
429.5999999999999,0.0023929999999999
429.8,0.0037159999999999
429.9999999999999,0.0042319999999999
430.19999999999993,-0.000265
430.3999999999999,-0.003198
430.5999999999999,-0.004719
430.8,-0.004268
430.9999999999999,-0.005682
431.19999999999993,-0.001797
431.3999999999999,0.0019059999999999
431.5999999999999,0.0047409999999999
431.8,0.0030839999999999
431.9999999999999,0.0036659999999999
432.19999999999993,0.0035339999999999
432.3999999999999,0.0028369999999999
432.5999999999999,0.0013919999999999
432.8,0.0003389999999999
432.9999999999999,-0.002555
433.19999999999993,-0.005276
433.3999999999999,-0.007059
433.5999999999999,-0.005832
433.8,-0.004352
433.9999999999999,-0.002511
434.19999999999993,-0.002427
434.3999999999999,-0.004002
434.5999999999999,-0.007319
434.8,-0.010458
434.9999999999999,-0.012982
435.19999999999993,-0.014298
435.3999999999999,-0.016124
435.5999999999999,-0.017402
435.8,-0.016963
435.9999999999999,-0.016656
436.19999999999993,-0.016778
436.3999999999999,-0.015228
436.5999999999999,-0.012805
436.8,-0.008127
436.9999999999999,-0.003632
437.19999999999993,0.0004919999999999
437.3999999999999,0.0036609999999999
437.5999999999999,0.0047609999999999
437.8,0.0032609999999999
437.9999999999999,0.0022999999999999
438.19999999999993,-3.0000000000446336e-06
438.3999999999999,-0.004145
438.5999999999999,-0.006371
438.8,-0.007988
438.9999999999999,-0.010359
439.19999999999993,-0.009506
439.3999999999999,-0.006502
439.5999999999999,-0.004821
439.8,-0.003712
439.9999999999999,-0.002626
440.19999999999993,-0.002336
440.3999999999999,-0.001022
440.5999999999999,-0.002854
440.8,-0.006573
440.9999999999999,-0.010146
441.19999999999993,-0.014073
441.3999999999999,-0.017879
441.5999999999999,-0.016436
441.8,-0.012631
441.9999999999999,-0.007769
442.19999999999993,-0.003537
442.3999999999999,-0.003006
442.5999999999999,-0.00449
442.8,-0.00689
442.9999999999999,-0.006758
443.19999999999993,-0.006692
443.3999999999999,-0.003755
443.5999999999999,-0.001894
443.8,0.0013089999999999
443.9999999999999,-0.001685
444.19999999999993,-0.003137
444.3999999999999,-0.005529
444.5999999999999,-0.005701
444.8,-0.007359
444.9999999999999,-0.006239
445.19999999999993,-0.00548
445.3999999999999,-0.004079
445.5999999999999,-0.005308
445.8,-0.006341
445.9999999999999,-0.006037
446.19999999999993,-0.007142
446.3999999999999,-0.008288
446.5999999999999,-0.008151
446.8,-0.006733
446.9999999999999,-0.007111
447.19999999999993,-0.006203
447.3999999999999,-0.004782
447.5999999999999,-0.004233
447.8,-0.006766
447.9999999999999,-0.009073
448.19999999999993,-0.011247
448.3999999999999,-0.012923
448.5999999999999,-0.012992
448.8,-0.011375
448.9999999999999,-0.009611
449.19999999999993,-0.007746
449.3999999999999,-0.005331
449.5999999999999,-0.00319
449.8,0.0005419999999999
449.9999999999999,0.0027579999999999
450.19999999999993,0.0033189999999999
450.3999999999999,0.0039369999999999
450.5999999999999,0.0048969999999999
450.8,0.0043479999999999
450.9999999999999,0.0023489999999999
451.19999999999993,0.0020909999999999
451.3999999999999,7.09999999999461e-05
451.5999999999999,-0.003698
451.8,-0.006656
451.9999999999999,-0.008848
452.19999999999993,-0.011414
452.3999999999999,-0.012326
452.5999999999999,-0.011918
452.8,-0.011077
452.9999999999999,-0.008597
453.19999999999993,-0.008355
453.3999999999999,-0.010264
453.5999999999999,-0.012523
453.8,-0.015365
453.9999999999999,-0.018579
454.19999999999993,-0.017986
454.3999999999999,-0.015666
454.5999999999999,-0.015086
454.8,-0.014053
454.9999999999999,-0.013629
455.19999999999993,-0.013313
455.3999999999999,-0.014001
455.5999999999999,-0.011804
455.8,-0.012406
455.9999999999999,-0.011718
456.19999999999993,-0.0123
456.3999999999999,-0.012337
456.5999999999999,-0.011735
456.8,-0.009793
456.9999999999999,-0.009944
457.19999999999993,-0.010414
457.3999999999999,-0.010904
457.5999999999999,-0.010915
457.8,-0.010956
457.9999999999999,-0.009869
458.19999999999993,-0.009423
458.3999999999999,-0.008759
458.5999999999999,-0.010754
458.8,-0.011664
458.9999999999999,-0.007928
459.19999999999993,-0.004244
459.3999999999999,-0.002555
459.5999999999999,-4.400000000005788e-05
459.8,0.0022629999999999
459.9999999999999,-0.000197
460.19999999999993,-0.003134
460.3999999999999,-0.005033
460.5999999999999,-0.008376
460.8,-0.012134
460.9999999999999,-0.014009
461.19999999999993,-0.014022
461.3999999999999,-0.013353
461.5999999999999,-0.009598
461.8,-0.008533
461.9999999999999,-0.008203
462.19999999999993,-0.007952
462.3999999999999,-0.008034
462.5999999999999,-0.010946
462.8,-0.010707
462.9999999999999,-0.010009
463.19999999999993,-0.010616
463.3999999999999,-0.010028
463.5999999999999,-0.006527
463.8,-0.004447
463.9999999999999,-0.00304
464.19999999999993,-0.003006
464.3999999999999,-0.004893
464.5999999999999,-0.008323
464.8,-0.010107
464.9999999999999,-0.009199
465.19999999999993,-0.007589
465.3999999999999,-0.006613
465.5999999999999,-0.006122
465.8,-0.005201
465.9999999999999,-0.003685
466.19999999999993,-0.000919
466.3999999999999,0.0037209999999999
466.5999999999999,0.0070769999999999
466.8,0.0071319999999999
466.9999999999999,0.0044919999999999
467.19999999999993,0.0029409999999999
467.3999999999999,-0.000384
467.5999999999999,-0.003091
467.8,-0.002411
467.9999999999999,-0.000942
468.19999999999993,-0.002132
468.3999999999999,-0.000516
468.5999999999999,0.0006559999999999
468.8,4.799999999995086e-05
468.9999999999999,-0.003513
469.19999999999993,-0.00371
469.3999999999999,-0.003786
469.5999999999999,-0.003193
469.8,-0.002029
469.9999999999999,-0.000969
470.19999999999993,-0.000148
470.3999999999999,-0.000238
470.5999999999999,-0.000695
470.8,-0.00265
470.9999999999999,-0.002565
471.19999999999993,-0.004916
471.3999999999999,-0.008957
471.5999999999999,-0.010928
471.8,-0.013018
471.9999999999999,-0.014011
472.19999999999993,-0.012371
472.3999999999999,-0.008998
472.5999999999999,-0.006283
472.8,-0.003212
472.9999999999999,-0.000407
473.19999999999993,-0.000686
473.3999999999999,-0.002584
473.5999999999999,-0.004236
473.8,-0.004399
473.9999999999999,-0.006099
474.19999999999993,-0.008083
474.3999999999999,-0.00812
474.5999999999999,-0.008968
474.8,-0.010006
474.9999999999999,-0.010104
475.19999999999993,-0.007564
475.3999999999999,-0.006529
475.5999999999999,-0.005882
475.8,-0.005056
475.9999999999999,-0.002546
476.19999999999993,-0.001351
476.3999999999999,-0.001966
476.5999999999999,-0.000441
476.8,-0.000331
476.9999999999999,-0.000805
477.19999999999993,-0.001838
477.3999999999999,-0.001922
477.5999999999999,-0.005135
477.8,-0.005448
477.9999999999999,-0.005149
478.19999999999993,-0.004357
478.3999999999999,-0.004221
478.5999999999999,-0.00326
478.8,-0.002794
478.9999999999999,-0.004584
479.19999999999993,-0.006506
479.3999999999999,-0.007757
479.5999999999999,-0.007952
479.8,-0.008674
479.9999999999999,-0.008352
480.19999999999993,-0.007697
480.3999999999999,-0.005207
480.5999999999999,-0.001656
480.8,-3.500000000004888e-05
480.9999999999999,0.0019479999999999
481.19999999999993,0.0013659999999999
481.3999999999999,0.0007979999999999
481.5999999999999,-0.001467
481.8,-0.002606
481.9999999999999,-0.006717
482.19999999999993,-0.007604
482.3999999999999,-0.007753
482.5999999999999,-0.00908
482.8,-0.008389
482.9999999999999,-0.005878
483.19999999999993,-0.00477
483.3999999999999,-0.006073
483.5999999999999,-0.006803
483.8,-0.009335
483.9999999999999,-0.010424
484.19999999999993,-0.009318
484.3999999999999,-0.006997
484.5999999999999,-0.004523
484.8,-0.003627
484.9999999999999,-0.004468
485.19999999999993,-0.005703
485.3999999999999,-0.008051
485.5999999999999,-0.01161
485.8,-0.011529
485.9999999999999,-0.010438
486.19999999999993,-0.009086
486.3999999999999,-0.007323
486.5999999999999,-0.004427
486.8,-0.004195
486.9999999999999,-0.004473
487.19999999999993,-0.005366
487.3999999999999,-0.007874
487.5999999999999,-0.007566
487.8,-0.008277
487.9999999999999,-0.00916
488.19999999999993,-0.009347
488.3999999999999,-0.007522
488.5999999999999,-0.007803
488.8,-0.003615
488.9999999999999,0.0006959999999999
489.19999999999993,0.0029599999999999
489.3999999999999,0.0049949999999999
489.5999999999999,0.0076849999999999
489.8,0.0068619999999999
489.9999999999999,0.0033749999999999
490.19999999999993,0.0003329999999999
490.3999999999999,-0.002755
490.5999999999999,-0.007312
490.8,-0.009559
490.9999999999999,-0.010023
491.19999999999993,-0.010982
491.3999999999999,-0.010657
491.5999999999999,-0.007686
491.8,-0.005678
491.9999999999999,-0.004091
492.19999999999993,-0.001837
492.3999999999999,-0.00249
492.5999999999999,-0.00575
492.8,-0.008797
492.9999999999999,-0.009048
493.19999999999993,-0.006962
493.3999999999999,-0.005375
493.5999999999999,-0.001369
493.8,0.0042489999999999
493.9999999999999,0.0084599999999999
494.19999999999993,0.0082949999999999
494.3999999999999,0.0069399999999999
494.5999999999999,0.0054609999999999
494.8,0.0002529999999999
494.9999999999999,-0.004464
495.19999999999993,-0.006795
495.3999999999999,-0.005409
495.5999999999999,-0.006681
495.8,-0.006112
495.9999999999999,-0.004774
496.19999999999993,-0.002801
496.3999999999999,-0.001447
496.5999999999999,-1.900000000004676e-05
496.8,-0.00027
496.9999999999999,-0.002558
497.19999999999993,-0.005012
497.3999999999999,-0.007137
497.5999999999999,-0.010351
497.8,-0.013374
497.9999999999999,-0.014902
498.19999999999993,-0.013135
498.3999999999999,-0.010646
498.5999999999999,-0.008025
498.8,-0.004252
498.9999999999999,-0.000252
499.19999999999993,-0.002113
499.3999999999999,-0.004787
499.5999999999999,-0.005095
499.8,-0.006183
499.9999999999999,-0.007699
500.19999999999993,-0.006413
500.3999999999999,-0.00331
500.5999999999999,-0.001569
500.8,-0.000874
500.9999999999999,0.0005279999999999
501.19999999999993,0.0006269999999999
501.3999999999999,-0.001636
501.5999999999999,-0.002646
501.8,-0.001984
501.9999999999999,-0.001375
502.19999999999993,4.999999999995286e-05
502.3999999999999,0.0005779999999999
502.5999999999999,4.199999999994486e-05
502.8,-0.00164
502.9999999999999,-0.00308
503.19999999999993,-0.005078
503.3999999999999,-0.005737
503.5999999999999,-0.007348
503.8,-0.005964
503.9999999999999,-0.004398
504.19999999999993,-0.005558
504.3999999999999,-0.007813
504.5999999999999,-0.007518
504.8,-0.009174
504.9999999999999,-0.013024
505.19999999999993,-0.01427
505.3999999999999,-0.013337
505.5999999999999,-0.012212
505.8,-0.011683
505.9999999999999,-0.010976
506.19999999999993,-0.011102
506.3999999999999,-0.012234
506.5999999999999,-0.012166
506.8,-0.011245
506.9999999999999,-0.009477
507.19999999999993,-0.008585
507.3999999999998,-0.007704
507.5999999999999,-0.008227
507.7999999999999,-0.011064
508.0,-0.014239
508.2,-0.01388
508.3999999999998,-0.01466
508.5999999999999,-0.015171
508.7999999999999,-0.013731
509.0,-0.011614
509.2,-0.012194
509.3999999999998,-0.013383
509.5999999999999,-0.014297
509.7999999999999,-0.014542
510.0,-0.013381
510.2,-0.011115
510.3999999999998,-0.005431
510.5999999999999,-0.002659
510.7999999999999,-0.001237
511.0,-0.002911
511.2,-0.001279
511.3999999999998,-0.001832
511.5999999999999,-0.000763
511.7999999999999,-0.001707
512.0,-0.000152
512.2,-0.003171
512.3999999999999,-0.004685
512.5999999999999,-0.004722
512.8,-0.002887
513.0,-0.003828
513.2,-0.003302
513.3999999999999,-0.003959
513.5999999999999,-0.005563
513.8,-0.007465
514.0,-0.006995
514.2,-0.007061
514.3999999999999,-0.005292
514.5999999999999,-0.005835
514.8,-0.00572
515.0,-0.006896
515.2,-0.005224
515.3999999999999,-0.005068
515.5999999999999,-0.003219
515.8,-0.001656
516.0,-0.000633
516.2,-0.001278
516.3999999999999,-0.000984
516.5999999999999,-0.002433
516.8,-0.003691
517.0,-0.0054
517.2,-0.006851
517.3999999999999,-0.010899
517.5999999999999,-0.010871
517.8,-0.010113
518.0,-0.008246
518.2,-0.006723
518.3999999999999,-0.003568
518.5999999999999,-0.004589
518.8,-0.005021
519.0,-0.005175
519.2,-0.006855
519.3999999999999,-0.008336
519.5999999999999,-0.007579
519.8,-0.008106
520.0,-0.006812
520.2,-0.005402
520.3999999999999,-0.005705
520.5999999999999,-0.005308
520.8,-0.003705
521.0,-0.005559
521.2,-0.008061
521.3999999999999,-0.008024
521.5999999999999,-0.00982
521.8,-0.010884
522.0,-0.009421
522.2,-0.004964
522.3999999999999,-0.003541
522.5999999999999,-0.001474
522.8,-0.002506
523.0,-0.00382
523.2,-0.007642
523.3999999999999,-0.007521
523.5999999999999,-0.008139
523.8,-0.004891
524.0,-0.005273
524.2,-0.004044
524.3999999999999,-0.004081
524.5999999999999,-0.003904
524.8,-0.006655
525.0,-0.007276
525.2,-0.00796
525.3999999999999,-0.010315
525.5999999999999,-0.012085
525.8,-0.013842
526.0,-0.015157
526.2,-0.016049
526.3999999999999,-0.014258
526.5999999999999,-0.013761
526.8,-0.014704
527.0,-0.013341
527.2,-0.013259
527.3999999999999,-0.015958
527.5999999999999,-0.016411
527.8,-0.014134
528.0,-0.013633
528.2,-0.013312
528.3999999999999,-0.012046
528.5999999999999,-0.010686
528.8,-0.009937
529.0,-0.009912
529.2,-0.009512
529.3999999999999,-0.008705
529.5999999999999,-0.01
529.8,-0.009862
530.0,-0.007674
530.2,-0.004512
530.3999999999999,-0.002089
530.5999999999999,-0.000437
530.8,-0.002062
531.0,-0.004975
531.2,-0.005768
531.3999999999999,-0.003616
531.5999999999999,-0.001688
531.8,-8.200000000004037e-05
532.0,2.999999999947489e-06
532.2,-0.001146
532.3999999999999,-0.005101
532.5999999999999,-0.008247
532.8,-0.008348
533.0,-0.007777
533.2,-0.008077
533.3999999999999,-0.0099
533.5999999999999,-0.009818
533.8,-0.010897
534.0,-0.008226
534.2,-0.007715
534.3999999999999,-0.005315
534.5999999999999,-0.004006
534.8,-0.002891
535.0,-0.004071
535.2,-0.003748
535.3999999999999,-0.003446
535.5999999999999,-0.002516
535.8,-0.002869
536.0,-0.002677
536.2,-0.003454
536.3999999999999,-0.003249
536.5999999999999,-0.004849
536.8,-0.003373
537.0,-0.003934
537.2,-0.00293
537.3999999999999,-0.003987
537.5999999999999,-0.001479
537.8,-0.000415
538.0,0.0005409999999999
538.2,-0.001613
538.3999999999999,-0.003796
538.5999999999999,-0.008105
538.8,-0.011649
539.0,-0.011831
539.2,-0.008966
539.3999999999999,-0.00536
539.5999999999999,-0.002943
539.8,-0.002013
540.0,-0.003098
540.2,-0.006042
540.3999999999999,-0.00783
540.5999999999999,-0.007675
540.8,-0.007873
541.0,-0.009274
541.2,-0.010012
541.3999999999999,-0.009646
541.5999999999999,-0.009487
541.8,-0.008058
542.0,-0.004889
542.2,-0.00242
542.3999999999999,0.0021209999999999
542.5999999999999,0.0037439999999999
542.8,0.0041399999999999
543.0,0.0012519999999999
543.2,-0.000111
543.3999999999999,-0.005319
543.5999999999999,-0.006911
543.8,-0.006746
544.0,-0.005023
544.2,-0.00576
544.3999999999999,-0.005881
544.5999999999999,-0.006512
544.8,-0.006315
545.0,-0.005557
545.2,-0.005018
545.3999999999999,-0.005128
545.5999999999999,-0.003188
545.8,-0.001011
546.0,0.0001479999999999
546.2,0.0016379999999999
546.3999999999999,0.0009749999999999
546.5999999999999,-0.001433
546.8,-0.004102
547.0,-0.00661
547.2,-0.008011
547.3999999999999,-0.006772
547.5999999999999,-0.003597
547.8,-0.000217
548.0,0.0035019999999999
548.2,0.0062549999999999
548.3999999999999,0.0072519999999999
548.5999999999999,0.0060829999999999
548.8,0.0034939999999999
549.0,0.0005629999999999
549.2,-0.002404
549.3999999999999,-0.00336
549.5999999999999,-0.005607
549.8,-0.009874
550.0,-0.013527
550.2,-0.014011
550.3999999999999,-0.01422
550.5999999999999,-0.013687
550.8,-0.013393
551.0,-0.012462
551.2,-0.012108
551.3999999999999,-0.012829
551.5999999999999,-0.012497
551.8,-0.010366
552.0,-0.008621
552.2,-0.00732
552.3999999999999,-0.006656
552.5999999999999,-0.008745
552.8,-0.00947
553.0,-0.00923
553.2,-0.009584
553.3999999999999,-0.01067
553.5999999999999,-0.007752
553.8,-0.004781
554.0,-0.003909
554.2,-0.003143
554.3999999999999,-0.002093
554.5999999999999,-0.002202
554.8,-0.001241
555.0,-0.000625
555.2,0.0007449999999999
555.3999999999999,0.0024029999999999
555.5999999999999,0.0028259999999999
555.8,-0.000346
556.0,-0.003289
556.2,-0.003182
556.3999999999999,-0.000828
556.5999999999999,0.0019729999999999
556.8,0.0063509999999999
557.0,0.0123479999999999
557.2,0.0140209999999999
557.3999999999999,0.0107019999999999
557.5999999999999,0.0053679999999999
557.8,-0.000942
558.0,-0.007209
558.2,-0.011594
558.3999999999999,-0.010156
558.5999999999999,-0.005589
558.8,-0.000365
559.0,0.0044469999999999
559.2,0.0076189999999999
559.3999999999999,0.0069529999999999
559.5999999999999,0.0023939999999999
559.8,-0.002341
560.0,-0.007359
560.2,-0.009213
560.3999999999999,-0.009129
560.5999999999999,-0.006349
560.8,-0.004438
561.0,-0.001579
561.2,-0.002878
561.3999999999999,-0.003186
561.5999999999999,-0.004776
561.8,-0.005305
562.0,-0.008533
562.2,-0.011093
562.3999999999999,-0.013922
562.5999999999999,-0.014814
562.8,-0.016457
563.0,-0.015058
563.2,-0.013047
563.3999999999999,-0.012853
563.5999999999999,-0.013489
563.8,-0.012614
564.0,-0.011053
564.2,-0.007065
564.3999999999999,-0.002668
564.5999999999999,0.0023469999999999
564.8,0.0053909999999999
565.0,0.0070889999999999
565.2,0.0049699999999999
565.3999999999999,0.0049349999999999
565.5999999999999,0.0014859999999999
565.8,-0.000858
566.0,-0.004689
566.2,-0.006979
566.3999999999999,-0.01141
566.5999999999999,-0.013166
566.8,-0.013721
567.0,-0.01377
567.2,-0.013999
567.3999999999999,-0.01294
567.5999999999999,-0.010729
567.8,-0.009944
568.0,-0.009184
568.2,-0.008914
568.3999999999999,-0.007765
568.5999999999999,-0.006622
568.8,-0.00611
569.0,-0.005417
569.1999999999998,-0.003707
569.3999999999999,-0.00788
569.5999999999999,-0.013142
569.8,-0.016344
570.0,-0.016415
570.1999999999998,-0.015753
570.3999999999999,-0.01198
570.5999999999999,-0.009005
570.8,-0.007636
571.0,-0.008456
571.1999999999998,-0.00842
571.3999999999999,-0.006221
571.5999999999999,-0.001703
571.8,0.0028699999999999
572.0,0.0047529999999999
572.1999999999998,0.0032779999999999
572.3999999999999,0.0021689999999999
572.5999999999999,0.0015029999999999
572.8,9.399999999994137e-05
573.0,-0.000634
573.1999999999998,0.0006209999999999
573.3999999999999,-0.001404
573.5999999999999,-0.006214
573.8,-0.010555
574.0,-0.010901
574.1999999999998,-0.010658
574.3999999999999,-0.008126
574.5999999999999,-0.004071
574.8,0.0002059999999999
575.0,6.89999999999441e-05
575.1999999999998,-0.003795
575.3999999999999,-0.007899
575.5999999999999,-0.008837
575.8,-0.009541
576.0,-0.007341
576.1999999999998,-0.002927
576.3999999999999,-0.000472
576.5999999999999,-0.001191
576.8,-0.002892
577.0,-0.005199
577.1999999999998,-0.006934
577.3999999999999,-0.006231
577.5999999999999,-0.008173
577.8,-0.009137
578.0,-0.00754
578.1999999999998,-0.005261
578.3999999999999,-0.004587
578.5999999999999,-0.003093
578.8,-0.001704
579.0,-0.005258
579.1999999999998,-0.00748
579.3999999999999,-0.009189
579.5999999999999,-0.008314
579.8,-0.00834
580.0,-0.004817
580.1999999999998,-0.004224
580.3999999999999,-0.00277
580.5999999999999,-0.003581
580.8,-0.003151
581.0,-0.004471
581.1999999999998,-0.006471
581.3999999999999,-0.009595
581.5999999999999,-0.011663
581.8,-0.012939
582.0,-0.015651
582.1999999999998,-0.013944
582.3999999999999,-0.011061
582.5999999999999,-0.008885
582.8,-0.006547
583.0,-0.002055
583.1999999999998,-0.000993
583.3999999999999,-0.00236
583.5999999999999,-0.005097
583.8,-0.006946
584.0,-0.007412
584.1999999999998,-0.007334
584.3999999999999,-0.005295
584.5999999999999,-0.002335
584.8,-0.000714
585.0,-0.001249
585.1999999999998,-0.002794
585.3999999999999,-0.004465
585.5999999999999,-0.005643
585.8,-0.006214
586.0,-0.004375
586.1999999999998,-0.001615
586.3999999999999,0.0007219999999999
586.5999999999999,0.0032839999999999
586.8,0.0015809999999999
587.0,-0.001894
587.1999999999998,-0.004823
587.3999999999999,-0.007883
587.5999999999999,-0.008484
587.8,-0.006153
588.0,-0.004306
588.1999999999998,-0.003623
588.3999999999999,-0.003164
588.5999999999999,-0.004638
588.8,-0.004725
589.0,-0.004751
589.1999999999998,-0.003182
589.3999999999999,-0.002023
589.5999999999999,-0.000776
589.8,-0.002427
590.0,-0.004375
590.1999999999998,-0.006187
590.3999999999999,-0.004587
590.5999999999999,-0.003534
590.8,-0.002071
591.0,-0.00075
591.1999999999998,-0.000408
591.3999999999999,-0.00203
591.5999999999999,-0.003862
591.8,-0.004482
592.0,-0.005803
592.1999999999998,-0.006259
592.3999999999999,-0.006722
592.5999999999999,-0.006389
592.8,-0.006455
593.0,-0.00591
593.1999999999998,-0.008454
593.3999999999999,-0.012729
593.5999999999999,-0.017277
593.8,-0.02022
594.0,-0.02337
594.1999999999998,-0.022831
594.3999999999999,-0.019384
