Time (s),Shift (nm)
0.0,0.0
0.1999999999999886,0.0008669999999999
0.4000000000000341,0.0027369999999997
0.6000000000000227,0.0056559999999996
0.8000000000000114,0.0121119999999996
1.0000000000000568,0.0173409999999996
1.2000000000000457,0.0210549999999996
1.400000000000034,0.0228869999999994
1.6000000000000227,0.0250049999999997
1.8000000000000114,0.0254879999999992
2.000000000000057,0.0254649999999996
2.200000000000045,0.0254749999999996
2.400000000000034,0.0256589999999996
2.6000000000000227,0.0240499999999994
2.800000000000012,0.0219229999999996
3.000000000000057,0.0227669999999995
3.200000000000045,0.0251589999999994
3.400000000000034,0.0246779999999993
3.6000000000000227,0.0246319999999995
3.8000000000000114,0.0264389999999994
4.000000000000057,0.0261529999999994
4.2000000000000455,0.0239589999999996
4.400000000000034,0.0239439999999993
4.600000000000023,0.0232709999999993
4.800000000000011,0.0213719999999995
5.000000000000057,0.0203589999999995
5.2000000000000455,0.0213049999999994
5.400000000000034,0.0236929999999992
5.600000000000023,0.0268339999999995
5.800000000000011,0.0277299999999995
6.000000000000057,0.0268249999999996
6.2000000000000455,0.0234029999999996
6.400000000000034,0.0210209999999992
6.600000000000023,0.0178059999999993
6.800000000000011,0.0167819999999996
7.000000000000057,0.0170279999999993
7.2000000000000455,0.0199769999999994
7.400000000000034,0.0217689999999994
7.600000000000023,0.0245219999999997
7.800000000000011,0.0268379999999996
8.000000000000057,0.0299319999999996
8.200000000000045,0.0315619999999996
8.400000000000034,0.0302919999999993
8.600000000000023,0.0268029999999996
8.800000000000011,0.0245679999999994
9.000000000000057,0.0231429999999996
9.200000000000044,0.0213159999999996
9.400000000000034,0.0209939999999995
9.600000000000025,0.0230289999999993
9.800000000000011,0.0247349999999992
10.000000000000057,0.0254779999999996
10.200000000000044,0.0272919999999996
10.400000000000034,0.0277029999999993
10.600000000000025,0.0288289999999995
10.800000000000011,0.0302139999999995
11.000000000000057,0.0313299999999996
11.200000000000044,0.0311869999999996
11.400000000000034,0.0315639999999994
11.600000000000025,0.0298239999999996
11.800000000000011,0.0260089999999992
12.000000000000057,0.0218929999999994
12.200000000000044,0.0174549999999995
12.400000000000034,0.0151709999999996
12.600000000000025,0.0148279999999996
12.800000000000011,0.0171969999999994
13.000000000000057,0.0190889999999996
13.200000000000044,0.0216019999999996
13.400000000000034,0.0219789999999995
13.600000000000025,0.0224119999999996
13.800000000000011,0.0207929999999993
14.000000000000057,0.0221099999999996
14.200000000000044,0.0223039999999996
14.400000000000034,0.0242139999999992
14.600000000000025,0.0250799999999995
14.800000000000011,0.0270359999999993
15.000000000000057,0.0252139999999996
15.200000000000044,0.0228489999999994
15.400000000000034,0.0203929999999994
15.600000000000025,0.0186019999999995
15.800000000000011,0.0182479999999993
16.000000000000057,0.0194619999999994
16.200000000000045,0.0231029999999994
16.400000000000034,0.0247689999999995
16.600000000000023,0.0258419999999994
16.80000000000001,0.0246749999999993
17.000000000000057,0.0230669999999992
17.200000000000045,0.0193089999999993
17.400000000000034,0.0175199999999993
17.600000000000023,0.0180309999999996
17.80000000000001,0.0201389999999994
18.000000000000057,0.0218479999999994
18.200000000000045,0.0244479999999995
18.400000000000038,0.0258779999999996
18.600000000000023,0.0266469999999996
18.80000000000001,0.0247729999999997
19.000000000000057,0.0235519999999995
19.200000000000045,0.0222009999999994
19.400000000000038,0.0218579999999994
19.600000000000023,0.0208769999999995
19.80000000000001,0.0208699999999995
20.000000000000057,0.0202439999999994
20.200000000000045,0.0196669999999996
20.400000000000038,0.0199729999999993
20.600000000000023,0.0188769999999993
20.80000000000001,0.0203269999999995
21.000000000000057,0.0217199999999992
21.200000000000045,0.0224439999999996
21.400000000000038,0.0212659999999993
21.600000000000023,0.0218679999999995
21.80000000000001,0.0224839999999995
22.000000000000057,0.0238619999999993
22.200000000000045,0.0261999999999993
22.400000000000038,0.0289609999999993
22.600000000000023,0.0302759999999993
22.80000000000001,0.0290669999999995
23.000000000000057,0.0268819999999996
23.200000000000045,0.0248699999999995
23.400000000000038,0.0227029999999994
23.600000000000023,0.0209799999999993
23.80000000000001,0.0192309999999995
24.000000000000057,0.0194299999999993
24.200000000000045,0.0202049999999993
24.400000000000038,0.0177499999999994
24.600000000000023,0.0164359999999996
24.80000000000001,0.0166099999999995
25.000000000000057,0.0162179999999994
25.200000000000045,0.0151479999999994
25.400000000000038,0.0162619999999993
25.600000000000023,0.0158289999999996
25.80000000000001,0.0139879999999994
26.000000000000057,0.0137979999999995
26.200000000000045,0.0132239999999996
26.400000000000038,0.0148409999999996
26.600000000000023,0.0171419999999993
26.80000000000001,0.0211619999999994
27.000000000000057,0.0228809999999994
27.200000000000045,0.0235749999999996
27.400000000000038,0.0217699999999996
27.600000000000023,0.0181659999999994
27.80000000000001,0.0145259999999995
28.000000000000057,0.0129659999999995
28.200000000000045,0.0136949999999993
28.400000000000038,0.0155739999999995
28.600000000000023,0.0188829999999993
28.80000000000001,0.0210659999999993
29.000000000000057,0.0204619999999993
29.200000000000045,0.0186689999999996
29.400000000000038,0.0169249999999996
29.600000000000023,0.0151989999999995
29.80000000000001,0.0142159999999993
30.000000000000057,0.0154409999999995
30.200000000000045,0.0178829999999994
30.400000000000038,0.0188979999999996
30.600000000000023,0.0195069999999994
30.80000000000001,0.0189889999999994
31.000000000000057,0.0188479999999993
31.200000000000045,0.0166739999999996
31.400000000000038,0.0154239999999994
31.600000000000023,0.0146219999999996
31.80000000000001,0.0131689999999995
32.00000000000006,0.0111169999999996
32.200000000000045,0.0106849999999996
32.400000000000034,0.0112209999999994
32.60000000000002,0.0133069999999992
32.80000000000001,0.0169199999999993
33.00000000000006,0.0210179999999993
33.200000000000045,0.0243699999999993
33.400000000000034,0.0258289999999994
33.60000000000002,0.0231979999999993
33.80000000000001,0.0217529999999994
34.00000000000006,0.0190919999999996
34.200000000000045,0.0169599999999996
34.400000000000034,0.0141509999999995
34.60000000000002,0.0139089999999995
34.80000000000001,0.0127539999999997
35.00000000000006,0.0117709999999995
35.200000000000045,0.0120349999999995
35.400000000000034,0.0151449999999995
35.60000000000002,0.0186519999999994
35.80000000000001,0.0205939999999995
36.00000000000006,0.0217849999999995
36.200000000000045,0.0215579999999993
36.400000000000034,0.0210799999999995
36.60000000000002,0.0208209999999993
36.80000000000001,0.0213329999999993
37.00000000000006,0.0220569999999993
37.200000000000045,0.0226549999999994
37.400000000000034,0.0235999999999996
37.60000000000002,0.0222799999999994
37.80000000000001,0.0220809999999995
38.00000000000006,0.0219339999999994
38.200000000000045,0.0223849999999994
38.400000000000034,0.0220949999999993
38.60000000000002,0.0244499999999994
38.80000000000001,0.0246189999999995
39.00000000000006,0.0246869999999996
39.200000000000045,0.0247789999999996
39.400000000000034,0.0245159999999993
39.60000000000002,0.0234489999999993
39.80000000000001,0.0237969999999996
40.00000000000006,0.0237419999999994
40.200000000000045,0.0218309999999997
40.400000000000034,0.0200379999999995
40.60000000000002,0.0184989999999993
40.80000000000001,0.0161509999999993
41.00000000000006,0.0151599999999993
41.200000000000045,0.0152679999999993
41.400000000000034,0.0142629999999996
41.60000000000002,0.0113769999999995
41.80000000000001,0.0086429999999992
42.00000000000006,0.0070829999999992
42.200000000000045,0.0072009999999993
42.400000000000034,0.0093559999999994
42.60000000000002,0.0127639999999993
42.80000000000001,0.0171089999999995
43.00000000000006,0.0194399999999994
43.200000000000045,0.0206239999999993
43.400000000000034,0.0201289999999993
43.60000000000002,0.0210139999999996
43.80000000000001,0.0216779999999996
44.00000000000006,0.0230379999999996
44.200000000000045,0.0232339999999995
44.400000000000034,0.0227899999999996
44.60000000000002,0.0212409999999994
44.80000000000001,0.0205679999999994
45.00000000000006,0.0187919999999994
45.200000000000045,0.0158419999999996
45.400000000000034,0.0137839999999993
45.60000000000002,0.0128689999999993
45.80000000000001,0.0101189999999995
46.00000000000006,0.0085689999999996
46.200000000000045,0.0101979999999994
46.400000000000034,0.0131289999999992
46.60000000000002,0.0149709999999996
46.80000000000001,0.0175759999999995
47.00000000000006,0.0187989999999995
47.200000000000045,0.0196959999999997
47.400000000000034,0.0198759999999995
47.60000000000002,0.0187439999999994
47.80000000000001,0.0160709999999992
48.00000000000006,0.0126709999999996
48.200000000000045,0.0098379999999993
48.400000000000034,0.0090559999999992
48.60000000000002,0.0103559999999993
48.80000000000001,0.0133279999999995
49.00000000000006,0.0192169999999993
49.200000000000045,0.0237389999999995
49.400000000000034,0.0247639999999993
49.60000000000002,0.0253929999999993
49.80000000000001,0.0263029999999995
50.00000000000006,0.0239949999999993
50.200000000000045,0.0204979999999994
50.400000000000034,0.0186019999999995
50.60000000000002,0.0155819999999993
50.80000000000001,0.0126119999999994
51.00000000000006,0.0115659999999992
51.200000000000045,0.0123699999999993
51.400000000000034,0.0130629999999993
51.60000000000002,0.0141449999999996
51.80000000000001,0.0151839999999996
52.00000000000006,0.0163599999999997
52.200000000000045,0.0180639999999994
52.400000000000034,0.0196339999999994
52.60000000000002,0.0221529999999994
52.80000000000001,0.0243049999999995
53.00000000000006,0.0242609999999996
53.200000000000045,0.0227069999999995
53.400000000000034,0.0211049999999994
53.60000000000002,0.0206429999999993
53.80000000000001,0.0191299999999996
54.00000000000006,0.0177729999999995
54.200000000000045,0.0156829999999996
54.400000000000034,0.0145849999999994
54.60000000000002,0.0117689999999996
54.80000000000001,0.0101739999999996
55.00000000000006,0.0107189999999994
55.200000000000045,0.0135199999999993
55.400000000000034,0.0151669999999994
55.60000000000002,0.0165169999999994
55.80000000000001,0.0178559999999996
56.00000000000006,0.0200729999999995
56.200000000000045,0.0196989999999996
56.400000000000034,0.0197109999999995
56.60000000000002,0.0186829999999993
56.80000000000001,0.0167259999999993
57.00000000000006,0.0142079999999995
57.200000000000045,0.0138279999999992
57.400000000000034,0.0148479999999993
57.60000000000002,0.0152829999999997
57.80000000000001,0.0156059999999995
58.00000000000006,0.0158049999999994
58.200000000000045,0.0157709999999995
58.400000000000034,0.0137949999999995
58.60000000000002,0.0128979999999994
58.80000000000001,0.0137149999999994
59.00000000000006,0.0144409999999997
59.200000000000045,0.0160859999999996
59.400000000000034,0.0204569999999995
59.60000000000002,0.0264219999999997
59.80000000000001,0.0302819999999996
60.00000000000006,0.0319249999999993
60.200000000000045,0.0316999999999993
60.400000000000034,0.0276469999999995
60.60000000000002,0.0220229999999994
60.80000000000001,0.0173669999999996
61.00000000000006,0.0135049999999994
61.200000000000045,0.0111689999999993
61.400000000000034,0.0111059999999993
61.60000000000008,0.0134309999999993
61.80000000000001,0.0147959999999995
62.00000000000006,0.0154419999999992
62.19999999999999,0.0132309999999993
62.400000000000034,0.0115949999999993
62.60000000000008,0.0085599999999996
62.80000000000001,0.0080679999999992
63.00000000000006,0.0101319999999995
63.19999999999999,0.0137479999999996
63.400000000000034,0.0162739999999996
63.60000000000008,0.0183749999999993
63.80000000000001,0.0191229999999995
64.00000000000006,0.0193669999999994
64.19999999999999,0.0192159999999996
64.40000000000003,0.0169529999999995
64.60000000000008,0.0132139999999996
64.80000000000001,0.0112639999999997
65.00000000000006,0.0101379999999995
65.19999999999999,0.0103159999999995
65.40000000000003,0.0127399999999995
65.60000000000008,0.0146749999999995
65.80000000000001,0.0150679999999994
66.00000000000006,0.0130399999999997
66.19999999999999,0.0120099999999996
66.40000000000003,0.0122489999999992
66.60000000000008,0.0144419999999994
66.80000000000001,0.0159789999999993
67.00000000000006,0.0182949999999992
67.19999999999999,0.0197379999999993
67.40000000000003,0.0199999999999995
67.60000000000008,0.0190659999999995
67.80000000000001,0.0192399999999994
68.00000000000006,0.0194669999999996
68.19999999999999,0.0188099999999993
68.40000000000003,0.0170729999999994
68.60000000000008,0.0163859999999993
68.80000000000001,0.0144629999999996
69.00000000000006,0.0124139999999997
69.19999999999999,0.0118519999999993
69.40000000000003,0.0110219999999996
69.60000000000008,0.0112249999999995
69.80000000000001,0.0123849999999996
70.00000000000006,0.0153899999999995
70.19999999999999,0.0150419999999993
70.40000000000003,0.0137899999999993
70.60000000000008,0.0115049999999996
70.80000000000001,0.0122779999999993
71.00000000000006,0.0105219999999994
71.19999999999999,0.0088249999999994
71.40000000000003,0.0071989999999995
71.60000000000008,0.0079619999999995
71.80000000000001,0.0059969999999993
72.00000000000006,0.0057019999999994
72.19999999999999,0.0077189999999993
72.40000000000003,0.0108339999999995
72.60000000000008,0.0117599999999993
72.80000000000001,0.0116129999999996
73.00000000000006,0.0110369999999995
73.19999999999999,0.0090109999999996
73.40000000000003,0.0080619999999993
73.60000000000008,0.0072459999999994
73.80000000000001,0.0074069999999997
74.00000000000006,0.0078609999999996
74.19999999999999,0.0095619999999994
74.40000000000003,0.0113049999999996
74.60000000000008,0.0138199999999995
74.80000000000001,0.0158049999999994
75.00000000000006,0.0183099999999996
75.19999999999999,0.0191139999999996
75.40000000000003,0.0182659999999996
75.60000000000008,0.0161269999999995
75.80000000000001,0.0148939999999995
76.00000000000006,0.0123239999999995
76.19999999999999,0.0095999999999993
76.40000000000003,0.0084529999999993
76.60000000000008,0.0081229999999994
76.80000000000001,0.0077009999999995
77.00000000000006,0.0087909999999995
77.19999999999999,0.0108619999999994
77.40000000000003,0.0143239999999993
77.60000000000008,0.0157139999999995
77.80000000000001,0.0178389999999994
78.00000000000006,0.0189629999999993
78.19999999999999,0.0210279999999993
78.40000000000003,0.0196849999999995
78.60000000000008,0.0191359999999995
78.80000000000001,0.0170799999999995
79.00000000000006,0.0149859999999995
79.19999999999999,0.0121689999999996
79.40000000000003,0.0114579999999993
79.60000000000008,0.0130439999999993
79.80000000000001,0.0146889999999992
80.00000000000006,0.0166309999999993
80.19999999999999,0.0184989999999993
80.40000000000003,0.0186469999999996
80.60000000000008,0.0178319999999994
80.80000000000001,0.0154769999999992
81.00000000000006,0.0137039999999997
81.19999999999999,0.0126609999999995
81.40000000000003,0.0126079999999992
81.60000000000008,0.0122949999999995
81.80000000000001,0.0131569999999996
82.00000000000006,0.0127919999999996
82.19999999999999,0.0133739999999993
82.40000000000003,0.0150499999999995
82.60000000000008,0.0156469999999995
82.80000000000001,0.0153129999999994
83.00000000000006,0.0186299999999994
83.19999999999999,0.0218739999999995
83.40000000000003,0.0230979999999996
83.60000000000008,0.0220339999999996
83.80000000000001,0.0217989999999996
84.00000000000006,0.0174619999999996
84.19999999999999,0.0124719999999993
84.40000000000003,0.0084579999999996
84.60000000000008,0.0083099999999993
84.80000000000001,0.0077169999999995
85.00000000000006,0.0079839999999995
85.19999999999999,0.0074909999999994
85.40000000000003,0.0087649999999994
85.60000000000008,0.0089819999999996
85.80000000000001,0.0105239999999993
86.00000000000006,0.0124619999999993
86.19999999999999,0.0139789999999995
86.40000000000003,0.0135699999999996
86.60000000000008,0.0144639999999993
86.80000000000001,0.0155419999999995
87.00000000000006,0.0148429999999994
87.19999999999999,0.0131419999999993
87.40000000000003,0.0138969999999996
87.60000000000008,0.0145229999999996
87.80000000000001,0.0141369999999994
88.00000000000006,0.0147749999999993
88.19999999999999,0.0171789999999996
88.40000000000003,0.0176229999999995
88.60000000000008,0.0174579999999995
88.80000000000001,0.0172479999999994
89.00000000000006,0.0167529999999995
89.19999999999999,0.0147859999999995
89.40000000000003,0.0125749999999995
89.60000000000008,0.0110349999999996
89.80000000000001,0.0099039999999996
90.00000000000006,0.0095179999999994
90.2,0.0103259999999996
90.40000000000003,0.0115849999999992
90.60000000000008,0.0106129999999993
90.8,0.0088639999999995
91.00000000000006,0.0082899999999996
91.2,0.0089019999999995
91.40000000000003,0.0087279999999996
91.60000000000008,0.0099859999999996
91.8,0.0110259999999993
92.00000000000006,0.0097829999999996
92.2,0.0078739999999997
92.40000000000003,0.0074499999999995
92.60000000000008,0.0080119999999994
92.8,0.0079219999999993
93.00000000000006,0.0083739999999994
93.2,0.0086389999999996
93.40000000000003,0.0081379999999993
93.60000000000008,0.0064859999999993
93.8,0.0075909999999996
94.00000000000006,0.0100859999999993
94.2,0.0126429999999992
94.40000000000003,0.0145259999999995
94.60000000000008,0.0154759999999996
94.8,0.0151479999999994
95.00000000000006,0.0134279999999993
95.2,0.0122879999999994
95.40000000000003,0.0113839999999996
95.60000000000008,0.0110909999999995
95.8,0.0102849999999996
96.00000000000006,0.0091209999999994
96.2,0.0088179999999993
96.40000000000003,0.0093329999999993
96.60000000000008,0.0110909999999995
96.8,0.0115269999999996
97.00000000000006,0.0127509999999992
97.2,0.0117259999999994
97.40000000000003,0.0106619999999995
97.60000000000008,0.0086439999999994
97.8,0.0105829999999995
98.00000000000006,0.0134679999999995
98.2,0.0146289999999993
98.40000000000003,0.0130949999999994
98.60000000000008,0.0112829999999997
98.8,0.0080109999999993
99.00000000000006,0.0037769999999994
99.2,0.0025569999999994
99.40000000000003,0.0042669999999995
99.60000000000008,0.0074879999999994
99.8,0.0104229999999994
100.00000000000006,0.0128639999999995
100.2,0.0125539999999992
100.40000000000003,0.0103859999999995
100.60000000000008,0.0075849999999992
100.8,0.0060179999999996
101.00000000000006,0.0057069999999996
101.2,0.0074029999999996
101.40000000000003,0.0090689999999993
101.60000000000008,0.0095139999999993
101.8,0.0087949999999996
102.00000000000006,0.0079019999999996
102.2,0.0071699999999994
102.40000000000003,0.0073179999999997
102.60000000000008,0.0084299999999997
102.8,0.0099879999999994
103.00000000000006,0.0115369999999996
103.2,0.0122979999999994
103.40000000000003,0.0141089999999994
103.60000000000008,0.0140269999999995
103.8,0.0123639999999993
104.00000000000006,0.0108549999999993
104.2,0.0110169999999993
104.40000000000003,0.0107199999999996
104.60000000000008,0.0105169999999996
104.8,0.0100699999999993
105.00000000000006,0.0086869999999996
105.2,0.0065549999999996
105.40000000000003,0.0052339999999992
105.60000000000008,0.0056909999999996
105.8,0.0067119999999993
106.00000000000006,0.0083039999999994
106.2,0.0112749999999994
106.40000000000003,0.0119869999999995
106.60000000000008,0.0102759999999992
106.8,0.0086319999999995
107.00000000000006,0.0072369999999994
107.2,0.0059079999999993
107.40000000000003,0.0048589999999992
107.60000000000008,0.0057739999999997
107.8,0.0066319999999993
108.00000000000006,0.0065929999999996
108.2,0.0059229999999996
108.40000000000003,0.0069909999999993
108.60000000000008,0.0089439999999996
108.8,0.0100839999999995
109.00000000000006,0.0122549999999996
109.2,0.0120899999999997
109.40000000000003,0.0112799999999992
109.60000000000008,0.0096579999999995
109.8,0.0099269999999993
110.00000000000006,0.0089399999999995
110.2,0.0112479999999997
110.40000000000003,0.0123579999999994
110.60000000000008,0.0125759999999996
110.8,0.0111599999999993
111.00000000000006,0.0114899999999993
111.2,0.0099539999999995
111.40000000000003,0.0090869999999996
111.60000000000008,0.0088599999999994
111.8,0.0102279999999996
112.00000000000006,0.0095889999999996
112.2,0.0092009999999995
112.40000000000003,0.0085969999999995
112.60000000000008,0.0078029999999995
112.8,0.0072149999999995
113.00000000000006,0.0090199999999995
113.2,0.0102079999999995
113.40000000000003,0.0102429999999995
113.60000000000008,0.0095079999999994
113.8,0.0080739999999996
114.00000000000006,0.0055289999999996
114.2,0.0030339999999995
114.40000000000003,0.0014369999999996
114.60000000000008,0.0019689999999994
114.8,0.0033249999999993
115.00000000000006,0.0058519999999995
115.2,0.0068999999999994
115.40000000000003,0.0090089999999993
115.60000000000008,0.0104209999999995
115.8,0.0096739999999995
116.00000000000006,0.0070999999999994
116.2,0.0072079999999994
116.40000000000003,0.0073049999999996
116.60000000000008,0.0076159999999996
116.8,0.0102269999999995
117.00000000000006,0.0127729999999997
117.2,0.0149789999999994
117.40000000000003,0.0141539999999995
117.60000000000008,0.0120239999999993
117.8,0.0103589999999993
118.00000000000006,0.0075019999999996
118.2,0.0044339999999993
118.40000000000003,0.0055579999999992
118.60000000000008,0.0078749999999994
118.8,0.0079009999999994
119.00000000000006,0.0082859999999995
119.2,0.0091379999999996
119.40000000000003,0.0071899999999995
119.60000000000008,0.0056889999999993
119.8,0.0051529999999995
120.00000000000006,0.0089939999999995
120.2,0.0098869999999995
120.40000000000003,0.0130049999999997
120.60000000000008,0.0144739999999994
120.8,0.0141139999999992
121.00000000000006,0.0098989999999994
121.2,0.0083589999999995
121.40000000000003,0.0067379999999994
121.60000000000008,0.0060179999999996
121.8,0.0062689999999996
122.00000000000006,0.0068539999999996
122.2,0.0058389999999994
122.40000000000003,0.0056449999999994
122.60000000000008,0.0065919999999994
122.8,0.0091979999999995
123.00000000000006,0.0107839999999996
123.2,0.0120789999999995
123.40000000000003,0.0117519999999995
123.60000000000008,0.0107599999999994
123.8,0.0088539999999994
124.00000000000006,0.0084469999999994
124.2,0.0097409999999995
124.40000000000003,0.0094859999999994
124.60000000000008,0.0088599999999994
124.8,0.0088489999999996
125.00000000000006,0.0091509999999996
125.2,0.0084779999999993
125.40000000000003,0.0093029999999996
125.60000000000008,0.0091009999999993
125.8,0.0083849999999996
126.00000000000006,0.0068609999999993
126.2,0.0051279999999995
126.40000000000003,0.0039009999999994
126.60000000000008,0.0035209999999996
126.8,0.0034139999999993
127.00000000000006,0.0021599999999994
127.2,0.0017719999999994
127.40000000000003,0.0013509999999996
127.60000000000008,0.0007329999999994
127.8,-0.0009460000000003
128.00000000000006,-0.0005220000000005
128.2,0.0010369999999992
128.40000000000003,0.0042269999999993
128.60000000000008,0.0061379999999995
128.8,0.0098889999999993
129.00000000000006,0.0115409999999993
129.2,0.0118309999999994
129.40000000000003,0.0095239999999994
129.60000000000008,0.0099469999999994
129.8,0.0069859999999994
130.00000000000006,0.0054889999999994
130.2,0.0041019999999996
130.40000000000003,0.0045029999999997
130.60000000000008,0.0036389999999992
130.8,0.0049789999999996
131.00000000000006,0.0054899999999995
131.2,0.0059739999999997
131.40000000000003,0.0054129999999994
131.60000000000008,0.0057489999999993
131.8,0.0060489999999995
132.00000000000006,0.0067679999999996
132.2,0.0068209999999995
132.40000000000003,0.0065929999999996
132.60000000000008,0.0060669999999993
132.8,0.0053509999999996
133.00000000000006,0.0048959999999995
133.2,0.0045479999999993
133.40000000000003,0.0023669999999995
133.60000000000008,0.0011059999999996
133.8,0.0008269999999996
134.00000000000006,0.0026869999999994
134.2,0.0075369999999996
134.40000000000003,0.0126079999999992
134.60000000000008,0.0136159999999994
134.8,0.0126809999999997
135.00000000000006,0.0094339999999997
135.2,0.0054329999999995
135.40000000000003,0.0029489999999996
135.60000000000008,0.0033529999999997
135.8,0.0050459999999996
136.00000000000006,0.0064379999999997
136.2,0.0059039999999996
136.40000000000003,0.0055659999999995
136.60000000000008,0.0040869999999992
136.8,0.0035809999999996
137.00000000000006,0.0041929999999994
137.2,0.0048629999999993
137.40000000000003,0.0055139999999993
137.60000000000008,0.0057819999999995
137.8,0.0036389999999992
138.00000000000006,0.0012799999999995
138.2,0.0020209999999996
138.40000000000003,0.0022059999999997
138.60000000000008,0.0043689999999996
138.8,0.0069369999999993
139.00000000000006,0.0091199999999993
139.2,0.0085439999999996
139.40000000000003,0.0070499999999995
139.60000000000008,0.0062189999999993
139.8,0.0059149999999994
140.00000000000006,0.0049729999999996
140.2,0.0032029999999996
140.40000000000003,0.0024629999999996
140.60000000000008,0.0021519999999997
140.8,0.0017549999999992
141.00000000000006,0.0007189999999996
141.2,0.0005439999999996
141.40000000000003,-0.0001490000000003
141.60000000000008,-0.0007790000000005
141.8,-0.0023290000000004
142.00000000000006,-0.0029970000000005
142.2,-0.0025660000000002
142.40000000000003,0.0003899999999994
142.60000000000008,0.0026569999999996
142.8,0.0044739999999996
143.00000000000006,0.0067979999999994
143.2,0.0078459999999993
143.40000000000003,0.0074529999999994
143.60000000000008,0.0051839999999994
143.8,0.0041729999999993
144.00000000000006,0.0022459999999995
144.2,-0.0012460000000005
144.40000000000003,-0.0035650000000004
144.60000000000008,-0.0022540000000006
144.8,0.0007819999999996
145.00000000000006,0.0024679999999994
145.2,0.0048989999999995
145.40000000000003,0.0064739999999994
145.60000000000008,0.0065279999999994
145.8,0.0049149999999995
146.00000000000006,0.0043759999999997
146.2,0.0045889999999992
146.40000000000003,0.0045689999999996
146.60000000000008,0.0035249999999993
146.8,0.0019959999999996
147.00000000000006,0.0024659999999996
147.2,0.0027189999999994
147.40000000000003,0.0031499999999993
147.60000000000008,0.0029789999999993
147.8,0.0027929999999996
148.00000000000006,0.0014909999999996
148.2,0.0015689999999994
148.40000000000003,0.0027069999999995
148.60000000000008,0.0039209999999996
148.8,0.0039069999999994
149.00000000000006,0.0029319999999994
149.2,0.0028759999999996
149.40000000000003,0.0022339999999996
149.60000000000008,0.0021059999999994
149.8,0.0027399999999992
150.00000000000006,0.0039649999999995
150.2,0.0011669999999996
150.40000000000003,-0.0029820000000007
150.60000000000008,-0.0040290000000005
150.8,-0.0040410000000004
151.00000000000006,-0.0038190000000004
151.2,-0.0009340000000004
151.40000000000003,0.0013109999999993
151.60000000000008,0.0007569999999996
151.8,0.0009269999999994
152.00000000000006,0.0011479999999997
152.2,0.0008269999999996
152.40000000000003,0.0010419999999995
152.60000000000008,0.0006319999999995
152.8,4.699999999946414e-05
153.00000000000006,0.0016709999999995
153.2,0.0025919999999994
153.40000000000003,0.0045259999999993
153.60000000000008,0.0049259999999993
153.8,0.0057779999999993
154.00000000000006,0.0051849999999995
154.2,0.0039719999999996
154.40000000000003,0.0023309999999994
154.60000000000008,0.0026089999999996
154.8,0.0041129999999993
155.00000000000006,0.0046799999999995
155.2,0.0048649999999996
155.40000000000003,0.0052959999999995
155.60000000000008,0.0042379999999995
155.8,0.0008779999999997
156.00000000000006,-0.0004870000000005
156.2,0.0012239999999996
156.40000000000003,0.0033239999999996
156.60000000000008,0.0055179999999994
156.8,0.0085769999999993
157.00000000000006,0.0108559999999995
157.2,0.0123519999999994
157.40000000000003,0.0117549999999995
157.60000000000008,0.0106589999999995
157.8,0.0096959999999994
158.00000000000006,0.0076649999999993
158.2,0.0037249999999993
158.40000000000003,0.0009539999999996
158.60000000000008,0.0007009999999993
158.8,-0.0011710000000006
159.00000000000006,-0.0021860000000004
159.2,-0.0008640000000004
159.40000000000003,0.0013009999999993
159.60000000000008,0.0032439999999995
159.8,0.0044369999999993
160.00000000000006,0.0052299999999996
160.2,0.0029909999999992
160.40000000000003,0.0005269999999995
160.60000000000008,-0.0015480000000005
160.8,-0.0011810000000003
161.00000000000006,0.0008069999999995
161.2,0.0035609999999994
161.40000000000003,0.0052969999999996
161.60000000000008,0.0051869999999993
161.8,0.0058799999999994
162.00000000000006,0.0045829999999993
162.2,0.0049209999999995
162.40000000000003,0.0061909999999993
162.60000000000008,0.0076889999999996
162.8,0.0073099999999994
163.00000000000006,0.0059849999999994
163.2,0.0042179999999993
163.40000000000003,0.0034569999999995
163.60000000000008,0.0055679999999993
163.8,0.0063329999999997
164.00000000000006,0.0082239999999993
164.2,0.0091329999999993
164.40000000000003,0.0076059999999995
164.60000000000008,0.0028439999999996
164.8,-0.0001360000000003
165.00000000000006,-0.0033440000000006
165.2,-0.0041490000000004
165.40000000000003,-0.0036530000000003
165.60000000000008,-0.0022080000000004
165.8,-0.0011660000000004
166.00000000000006,0.0015439999999995
166.2,0.0026849999999996
166.40000000000003,0.0039099999999994
166.60000000000008,0.0050299999999996
166.8,0.0078599999999995
167.00000000000006,0.0087319999999992
167.2,0.0094219999999993
167.40000000000003,0.0105069999999996
167.60000000000008,0.0118019999999994
167.8,0.0126399999999993
168.00000000000006,0.0135399999999994
168.2,0.0125139999999994
168.40000000000003,0.0097949999999995
168.60000000000008,0.0070229999999993
168.8,0.0043729999999992
169.00000000000006,0.0023019999999993
169.2,0.0019349999999995
169.40000000000003,0.0023339999999993
169.60000000000008,0.0023769999999996
169.8,0.0013999999999994
170.00000000000006,0.0011929999999993
170.2,0.0034839999999993
170.40000000000003,0.0057429999999993
170.60000000000008,0.0068819999999996
170.8,0.0080289999999996
171.00000000000006,0.0068789999999996
171.2,0.0030019999999995
171.40000000000003,-0.0012970000000005
171.60000000000008,-0.0018550000000003
171.8,-0.0009620000000003
172.00000000000006,0.0020059999999992
172.2,0.0037129999999994
172.40000000000003,0.0059809999999993
172.60000000000008,0.0059009999999997
172.8,0.0049009999999993
173.00000000000006,0.0031439999999993
173.2,0.0023779999999993
173.40000000000003,0.0014169999999995
173.60000000000008,-2.300000000055036e-05
173.8,0.0002799999999996
174.00000000000006,0.0015839999999993
174.2,0.0032249999999995
174.40000000000003,0.0048519999999996
174.60000000000008,0.0053439999999995
174.8,0.0027159999999994
175.00000000000006,0.0009449999999993
175.2,0.0004019999999993
175.40000000000003,-0.0013890000000005
175.60000000000008,-0.0041260000000002
175.8,-0.0031870000000004
176.00000000000006,-0.0024860000000006
176.2,-0.0018520000000004
176.40000000000003,-0.0007180000000004
176.60000000000008,0.0014769999999995
176.8,0.0012869999999995
177.00000000000006,0.0012649999999996
177.2,0.0016009999999995
177.40000000000003,0.0019509999999995
177.60000000000008,0.0041449999999993
177.8,0.0042329999999997
178.00000000000006,0.0040609999999996
178.2,0.0033549999999995
178.40000000000003,0.0047699999999997
178.60000000000008,0.0050919999999994
178.8,0.0048389999999995
179.00000000000006,0.0037369999999996
179.2,0.0033609999999995
179.40000000000003,0.0021979999999994
179.60000000000008,-0.0003770000000002
179.8,0.0008349999999994
180.00000000000006,0.0010569999999994
180.2,0.0022139999999994
180.40000000000003,0.0028089999999996
180.60000000000008,0.0050739999999995
180.8,0.0039029999999993
181.00000000000009,0.0032229999999993
181.2,0.0003479999999993
181.40000000000003,-0.0021340000000003
181.60000000000008,-0.0038300000000006
181.8,-0.0032980000000004
182.00000000000009,-0.0027120000000007
182.2,-0.0012030000000002
182.40000000000003,0.0017909999999994
182.60000000000008,0.0036929999999992
182.8,0.0043279999999996
183.00000000000009,0.0049619999999994
183.2,0.0053599999999995
183.40000000000003,0.0037369999999996
183.60000000000008,0.0013689999999995
183.8,-0.0005610000000006
184.00000000000009,-0.0014140000000004
184.2,-0.0008650000000005
184.40000000000003,-0.0001770000000003
184.60000000000008,0.0011549999999993
184.8,0.0027379999999994
185.00000000000009,0.0033709999999995
185.2,0.0028869999999994
185.40000000000003,0.0034249999999995
185.60000000000008,0.0045509999999993
185.8,0.0053339999999995
186.00000000000009,0.0045299999999994
186.2,0.0051379999999996
186.40000000000003,0.0056269999999996
186.60000000000008,0.0059099999999996
186.8,0.0055509999999996
187.00000000000009,0.0054759999999993
187.2,0.0034579999999992
187.40000000000003,0.0014589999999996
187.60000000000008,-0.0031590000000005
187.8,-0.0047050000000004
188.00000000000009,-0.0041400000000004
188.2,-0.0008520000000005
188.40000000000003,0.0013029999999996
188.60000000000008,0.0055179999999994
188.8,0.0061909999999993
189.00000000000009,0.0057749999999994
189.2,0.0025559999999993
189.40000000000003,0.0008439999999994
189.60000000000008,0.0008809999999996
189.8,0.0016579999999994
190.00000000000009,0.0003549999999994
190.2,-0.0012840000000005
190.40000000000003,-0.0043670000000006
190.60000000000008,-0.0073340000000006
190.8,-0.0088000000000003
191.00000000000009,-0.0083650000000004
191.2,-0.0084770000000005
191.40000000000003,-0.0067190000000003
191.60000000000008,-0.0051860000000005
191.8,-0.0035120000000006
192.00000000000009,-0.0009960000000006
192.2,0.0022499999999996
192.40000000000003,0.0042409999999994
192.60000000000008,0.0050229999999995
192.8,0.0044179999999993
193.00000000000009,0.0030119999999995
193.2,0.0003229999999994
193.40000000000003,-0.0023960000000005
193.60000000000008,-0.0030800000000006
193.8,-0.0030110000000003
194.00000000000009,-0.0023550000000005
194.2,0.0002129999999995
194.40000000000003,0.0026159999999992
194.60000000000008,0.0031429999999996
194.8,0.0037559999999996
195.00000000000009,0.0030709999999993
195.2,0.0010239999999996
195.40000000000003,-0.0002070000000005
195.60000000000008,-0.0006390000000005
195.8,-0.0004880000000007
196.00000000000009,0.0005989999999993
196.2,0.0010109999999996
196.40000000000003,-0.0006400000000006
196.60000000000008,-0.0026700000000006
196.8,-0.0048230000000004
197.00000000000009,-0.0070080000000003
197.2,-0.0065900000000005
197.40000000000003,-0.0048320000000003
197.60000000000008,-0.0034930000000006
197.8,-0.0024750000000004
198.00000000000009,-0.0022420000000002
198.2,-0.0014050000000005
198.40000000000003,-0.0007400000000004
198.60000000000008,0.0005769999999993
198.8,0.0019289999999996
199.00000000000009,0.0036459999999993
199.2,0.0034409999999995
199.40000000000003,0.0034529999999994
199.60000000000008,0.0033839999999996
199.8,0.0018009999999994
200.00000000000009,0.0019439999999995
200.2,0.0005409999999996
200.40000000000003,-0.0007160000000006
200.60000000000008,-0.0009560000000004
200.8,0.0014069999999994
201.00000000000009,0.0017069999999996
201.2,0.0020829999999993
201.40000000000003,0.0023059999999994
201.60000000000008,0.0018329999999995
201.8,-0.0001200000000003
202.00000000000009,-0.0001260000000002
202.2,0.0005749999999995
202.40000000000003,0.0004479999999995
202.60000000000008,-0.0006120000000002
202.8,-0.0014250000000006
203.00000000000009,-0.0034340000000003
203.2,-0.0029300000000005
203.40000000000003,-0.0002240000000006
203.60000000000008,0.0007389999999993
203.8,0.0018199999999994
204.00000000000009,0.0008019999999993
204.2,0.0005679999999994
204.40000000000003,-7.800000000068863e-05
204.60000000000008,0.0027149999999993
204.8,0.0045069999999993
205.00000000000009,0.0082789999999994
205.2,0.0087499999999995
205.40000000000003,0.0075799999999994
205.60000000000008,0.0040009999999996
205.8,0.0015509999999996
206.00000000000009,-0.0025740000000005
206.2,-0.0050090000000007
206.40000000000003,-0.0077490000000004
206.60000000000008,-0.0083840000000003
206.8,-0.0097340000000003
207.00000000000009,-0.0080700000000004
207.2,-0.0074450000000005
207.40000000000003,-0.0058030000000006
207.60000000000008,-0.0062260000000002
207.8,-0.0050070000000004
208.00000000000009,-0.0060260000000003
208.2,-0.0076870000000006
208.40000000000003,-0.0081240000000004
208.60000000000008,-0.0067000000000003
208.8,-0.0076080000000002
209.00000000000009,-0.0076080000000002
209.2,-0.0060290000000002
209.40000000000003,-0.0032800000000006
209.60000000000008,0.0006049999999993
209.8,0.0046859999999995
210.00000000000009,0.0077009999999995
210.2,0.0113889999999994
210.40000000000003,0.0116029999999995
210.60000000000008,0.0115749999999996
210.8,0.0109169999999996
211.00000000000009,0.0105369999999993
211.2,0.0079329999999995
211.40000000000003,0.0069529999999993
211.60000000000008,0.0027759999999994
211.8,-0.0001500000000005
212.00000000000009,-0.0019070000000005
212.2,-0.0022470000000005
212.40000000000003,-0.0031420000000004
212.60000000000008,-0.0023480000000004
212.8,-0.0015250000000004
213.00000000000009,-0.0021690000000003
213.2,-0.0027000000000003
213.40000000000003,-0.0036120000000003
213.60000000000008,-0.0056410000000006
213.8,-0.0065980000000003
214.00000000000009,-0.0047170000000003
214.2,-0.0037260000000003
214.40000000000003,-0.0027990000000004
214.60000000000008,-0.0022530000000005
214.8,-0.0014400000000005
215.00000000000009,-0.0032350000000005
215.2,-0.0044810000000006
215.40000000000003,-0.0055060000000004
215.60000000000008,-0.0033720000000005
215.8,-0.0021730000000004
216.00000000000009,-0.0001040000000003
216.2,0.0019909999999994
216.40000000000003,0.0023799999999996
216.60000000000008,0.0005509999999993
216.8,-0.0016380000000006
217.00000000000009,-0.0018740000000003
217.2,-0.0012630000000006
217.40000000000003,0.0014359999999995
217.60000000000008,0.0038269999999993
217.8,0.0069289999999995
218.00000000000009,0.0064809999999995
218.2,0.0059099999999996
218.40000000000003,0.0063419999999996
218.60000000000008,0.0079459999999995
218.8,0.0073079999999996
219.00000000000009,0.0077349999999993
219.2,0.0056939999999996
219.40000000000003,0.0023999999999992
219.60000000000008,-0.0007830000000006
219.8,-0.0025600000000003
220.00000000000009,-0.0032940000000003
220.2,-0.0029420000000004
220.40000000000003,-0.0026730000000005
220.60000000000008,-0.0020760000000006
220.8,-0.0007820000000005
221.00000000000009,0.0004489999999996
221.2,0.0011739999999993
221.40000000000003,0.0005299999999994
221.60000000000008,-0.0004710000000005
221.8,-0.0008800000000004
222.00000000000009,-0.0015330000000006
222.2,-0.0030880000000004
222.40000000000003,-0.0029220000000003
222.60000000000008,-0.0033080000000005
222.8,-0.0060000000000006
223.00000000000009,-0.0074110000000002
223.2,-0.0054800000000003
223.40000000000003,-0.0041980000000005
223.60000000000008,-0.0032740000000006
223.8,-0.0002890000000004
224.00000000000009,0.0010519999999996
224.2,0.0012169999999995
224.40000000000003,0.0025749999999993
224.60000000000008,0.0043629999999996
224.8,0.0040799999999996
225.00000000000009,0.0023099999999995
225.2,0.0008019999999993
225.40000000000003,-0.0007690000000004
225.60000000000008,-0.0021840000000006
225.8,-0.0032840000000002
226.00000000000009,-0.0036890000000004
226.2,-0.0046030000000003
226.40000000000003,-0.0077070000000003
226.60000000000008,-0.0110190000000005
226.8,-0.0119680000000004
227.00000000000009,-0.0090070000000004
227.2,-0.0063340000000002
227.40000000000003,-0.0047720000000004
227.60000000000008,-0.0027000000000003
227.8,-0.0019730000000004
228.00000000000009,-0.0017830000000005
228.2,-0.0019130000000004
228.40000000000003,-3.0000000000640625e-05
228.60000000000008,0.0007039999999993
228.8,0.0022359999999994
229.00000000000009,0.0011019999999994
229.2,0.0023039999999996
229.40000000000003,0.0036959999999996
229.60000000000008,0.0052759999999993
229.8,0.0035709999999995
230.00000000000009,0.0017959999999996
230.2,-0.0013650000000002
230.40000000000003,-0.0026260000000006
230.60000000000008,-0.0041920000000006
230.8,-0.0024890000000006
231.00000000000009,-0.0016260000000003
231.2,-0.0018530000000005
231.40000000000003,-0.0060430000000004
231.60000000000008,-0.0088070000000004
231.8,-0.0114030000000004
232.00000000000009,-0.0112320000000005
232.2,-0.0113080000000005
232.40000000000003,-0.0089960000000006
232.60000000000008,-0.0064850000000005
232.8,-0.0030880000000004
233.00000000000009,-0.0032320000000005
233.2,-0.0031130000000003
233.40000000000003,-0.0022240000000004
233.60000000000008,-0.0012200000000004
233.8,-0.0025030000000003
234.00000000000009,-0.0017010000000006
234.2,-0.0004100000000004
234.40000000000003,0.0004869999999996
234.60000000000008,-0.0003620000000004
234.8,-0.0004090000000003
235.00000000000009,-0.0012430000000005
235.2,-0.0008290000000004
235.40000000000003,-0.0020980000000005
235.60000000000008,-0.0023340000000002
235.8,-0.0027570000000003
236.00000000000009,-0.0012940000000005
236.2,-0.0015830000000005
236.40000000000003,-0.0011980000000004
236.60000000000008,-0.0029180000000006
236.8,-0.0054500000000006
237.00000000000009,-0.0088220000000003
237.2,-0.0112420000000006
237.40000000000003,-0.0113410000000007
237.60000000000008,-0.0081730000000006
237.8,-0.0061170000000005
238.00000000000009,-0.0050010000000004
238.2,-0.0058740000000003
238.40000000000003,-0.0075760000000006
238.60000000000008,-0.0095180000000003
238.8,-0.0094810000000005
239.00000000000009,-0.0096090000000006
239.2,-0.0080500000000003
239.40000000000003,-0.0076990000000005
239.60000000000008,-0.0072840000000002
239.8,-0.0091970000000003
240.00000000000009,-0.0108560000000004
240.2,-0.0133250000000004
240.40000000000003,-0.0151890000000003
240.60000000000008,-0.0158680000000006
240.8,-0.0134580000000004
241.00000000000009,-0.0108320000000006
241.2,-0.0076220000000004
241.40000000000003,-0.0045140000000003
241.60000000000008,-0.0035110000000004
241.8,-0.0044780000000006
242.00000000000009,-0.0052550000000004
242.2,-0.0040930000000005
242.40000000000003,-0.0028720000000004
242.60000000000008,-0.0039130000000002
242.8,-0.0067910000000006
243.00000000000009,-0.0078750000000002
243.2,-0.0089260000000006
243.40000000000003,-0.0098430000000004
243.60000000000008,-0.0094070000000003
243.8,-0.0052510000000003
244.00000000000009,-0.0024380000000006
244.2,-0.0025780000000006
244.40000000000003,-0.0034840000000007
244.60000000000008,-0.0025250000000003
244.8,-0.0023630000000003
245.00000000000009,-0.0034600000000004
245.2,-0.0020400000000004
245.40000000000003,0.0007279999999996
245.60000000000008,0.0009119999999995
245.8,0.0010709999999996
246.00000000000009,0.0027149999999993
246.2,0.0026739999999993
246.40000000000003,0.0009619999999994
246.60000000000008,-0.0002790000000003
246.8,-0.0007550000000002
247.00000000000009,-0.0023380000000003
247.2,-0.0012650000000005
247.40000000000003,0.0012029999999993
247.60000000000008,0.0044909999999993
247.8,0.0041429999999995
248.00000000000009,0.0033259999999994
248.2,-0.0005910000000004
248.40000000000003,-0.0053800000000006
248.60000000000008,-0.0091000000000005
248.8,-0.0103490000000006
249.00000000000009,-0.0096440000000006
249.2,-0.0072540000000005
249.40000000000003,-0.0062360000000003
249.60000000000008,-0.0077040000000003
249.8,-0.0098210000000005
250.00000000000009,-0.0120440000000003
250.2,-0.0139780000000007
250.40000000000003,-0.0145310000000002
250.60000000000008,-0.0117190000000007
250.8,-0.0092870000000004
251.00000000000009,-0.0064300000000003
251.2,-0.0044210000000006
251.40000000000003,-0.0027860000000003
251.60000000000008,-0.0044050000000006
251.8,-0.0038370000000003
252.00000000000009,-0.0042190000000004
252.2,-0.0045360000000003
252.40000000000003,-0.0049120000000004
252.60000000000008,-0.0031100000000003
252.8,-0.0029220000000003
253.00000000000009,-0.0025330000000005
253.2,-0.0022460000000004
253.40000000000003,-0.0013130000000005
253.60000000000008,-0.0029150000000006
253.8,-0.0038180000000003
254.00000000000009,-0.0061710000000005
254.2,-0.0074320000000005
254.40000000000003,-0.0092200000000004
254.60000000000008,-0.0089220000000005
254.8,-0.0079820000000006
255.00000000000009,-0.0040490000000006
255.2,-0.0013250000000004
255.40000000000003,0.0014699999999994
255.60000000000008,0.0039069999999994
255.8,0.0048489999999996
256.00000000000006,0.0014819999999993
256.2,-0.0010070000000004
256.40000000000003,-0.0034230000000006
256.6000000000001,-0.0039870000000004
256.8,-0.0039580000000003
257.00000000000006,-0.0019960000000005
257.2,-0.0005950000000005
257.40000000000003,7.59999999995209e-05
257.6000000000001,-0.0012220000000002
257.8,-0.0028260000000006
258.00000000000006,-0.0041890000000006
258.2,-0.0070250000000005
258.40000000000003,-0.0083130000000006
258.6000000000001,-0.0105790000000003
258.8,-0.0115480000000003
259.00000000000006,-0.0116790000000004
259.2,-0.0108140000000003
259.40000000000003,-0.0089480000000006
259.6000000000001,-0.0060240000000004
259.8,-0.0040650000000006
260.00000000000006,-0.0041070000000003
260.2,-0.0038480000000005
260.40000000000003,-0.0051920000000005
260.6000000000001,-0.0069900000000004
260.8,-0.0091100000000006
261.00000000000006,-0.0085900000000003
261.2,-0.0097990000000005
261.40000000000003,-0.0097590000000002
261.6000000000001,-0.0087120000000004
261.8,-0.0074870000000006
262.00000000000006,-0.0095230000000006
262.2,-0.0088070000000004
262.40000000000003,-0.0077040000000003
262.6000000000001,-0.0078440000000004
262.8,-0.0093960000000006
263.00000000000006,-0.0075260000000003
263.2,-0.0057970000000007
263.40000000000003,-0.0062920000000006
263.6000000000001,-0.0066090000000005
263.8,-0.0049680000000003
264.00000000000006,-0.0052560000000005
264.2,-0.0075820000000006
264.40000000000003,-0.0081420000000003
264.6000000000001,-0.0076390000000006
264.8,-0.0066840000000003
265.00000000000006,-0.0065920000000003
265.2,-0.0059450000000005
265.40000000000003,-0.0068710000000002
265.6000000000001,-0.0094910000000005
265.8,-0.0115850000000006
266.00000000000006,-0.0108650000000003
266.2,-0.0088340000000006
266.40000000000003,-0.0074400000000003
266.6000000000001,-0.0046220000000003
266.8,-0.0031430000000005
267.00000000000006,-0.0039560000000005
267.2,-0.0048000000000003
267.40000000000003,-0.0047180000000004
267.6000000000001,-0.0039640000000003
267.8,-0.0044640000000004
268.00000000000006,-0.0058630000000006
268.2,-0.0076980000000004
268.40000000000003,-0.0105230000000005
268.6000000000001,-0.0141750000000007
268.8,-0.0156430000000002
269.00000000000006,-0.0132190000000003
269.2,-0.0095910000000003
269.40000000000003,-0.0057420000000005
269.6000000000001,-0.0035720000000005
269.8,-0.0031650000000005
270.00000000000006,-0.0057430000000007
270.2,-0.0113150000000006
270.40000000000003,-0.0158700000000004
270.6000000000001,-0.0179540000000004
270.8,-0.0171360000000007
271.00000000000006,-0.0137760000000004
271.2,-0.0091300000000003
271.40000000000003,-0.0041000000000006
271.6000000000001,-0.0011370000000003
271.8,-4.100000000040183e-05
272.00000000000006,-0.0003200000000003
272.2,-0.0019820000000003
272.40000000000003,-0.0054880000000006
272.6000000000001,-0.0069010000000004
272.8,-0.0090730000000003
273.00000000000006,-0.0110130000000006
273.2,-0.0134410000000007
273.40000000000003,-0.0139410000000004
273.6000000000001,-0.0148850000000004
273.8,-0.0147390000000005
274.00000000000006,-0.0138160000000007
274.2,-0.0107180000000006
274.40000000000003,-0.0091120000000004
274.6000000000001,-0.0095470000000004
274.8,-0.0098480000000003
275.00000000000006,-0.0103490000000006
275.2,-0.0115630000000006
275.40000000000003,-0.0101090000000003
275.6000000000001,-0.0069290000000004
275.8,-0.0038950000000004
276.00000000000006,-0.0038670000000005
276.2,-0.0033240000000005
276.40000000000003,-0.0048770000000004
276.6000000000001,-0.0063520000000005
276.8,-0.0086220000000003
277.00000000000006,-0.0091110000000003
277.2,-0.0086780000000006
277.40000000000003,-0.0084510000000004
277.6000000000001,-0.0084560000000006
277.8,-0.0076240000000002
278.00000000000006,-0.0075360000000004
278.2,-0.0090020000000006
278.40000000000003,-0.0096280000000006
278.6000000000001,-0.0095530000000003
278.8,-0.0108270000000003
279.00000000000006,-0.0103760000000003
279.2,-0.0085820000000005
279.40000000000003,-0.0066360000000003
279.6000000000001,-0.0046010000000005
279.8,-0.0033440000000006
280.00000000000006,-0.0039830000000002
280.2,-0.0059350000000004
280.40000000000003,-0.0074450000000005
280.6000000000001,-0.0092870000000004
280.8,-0.0088010000000005
281.00000000000006,-0.0069790000000002
281.2,-0.0047020000000004
281.40000000000003,-0.0046160000000003
281.6000000000001,-0.0055780000000003
281.8,-0.0076830000000005
282.00000000000006,-0.0097350000000004
282.2,-0.0116810000000007
282.40000000000003,-0.0120560000000002
282.6000000000001,-0.0116120000000004
282.8,-0.0110240000000003
283.00000000000006,-0.0101530000000003
283.2,-0.0104140000000003
283.40000000000003,-0.0110600000000005
283.6000000000001,-0.0137150000000003
283.8,-0.0155090000000006
284.00000000000006,-0.0159380000000006
284.2,-0.0143560000000007
284.40000000000003,-0.0112380000000005
284.6000000000001,-0.0064240000000004
284.8,-0.0027550000000005
285.00000000000006,-0.0025470000000002
285.2,-0.0035740000000004
285.40000000000003,-0.0034940000000003
285.6000000000001,-0.0042040000000005
285.8,-0.0056620000000005
286.00000000000006,-0.0071440000000007
286.2,-0.0084970000000006
286.40000000000003,-0.0119600000000006
286.6000000000001,-0.0143670000000004
286.8,-0.0160300000000006
287.00000000000006,-0.0151670000000003
287.2,-0.0138160000000007
287.40000000000003,-0.0110430000000003
287.6000000000001,-0.0083240000000004
287.8,-0.0037680000000004
288.00000000000006,-0.0016760000000006
288.2,-0.0004560000000006
288.40000000000003,-0.0015500000000003
288.6000000000001,-0.0031580000000004
288.8,-0.0058840000000004
289.00000000000006,-0.0071400000000005
289.2,-0.0080510000000004
289.40000000000003,-0.0084580000000005
289.6000000000001,-0.0084640000000004
289.8,-0.0083980000000005
290.00000000000006,-0.0083190000000006
290.2,-0.0067560000000006
290.40000000000003,-0.0052340000000006
290.6000000000001,-0.0042940000000006
290.8,-0.0043470000000005
291.00000000000006,-0.0033570000000002
291.2,-0.0042050000000006
291.40000000000003,-0.0045970000000004
291.6000000000001,-0.0044010000000005
291.8,-0.0041510000000006
292.00000000000006,-0.0084330000000005
292.2,-0.0114360000000006
292.40000000000003,-0.0121820000000005
292.6000000000001,-0.0107700000000003
292.8,-0.0086820000000003
293.00000000000006,-0.0046880000000006
293.2,-0.0024110000000003
293.40000000000003,-0.0035130000000003
293.6000000000001,-0.0076240000000002
293.8,-0.0122920000000004
294.00000000000006,-0.0142200000000003
294.2,-0.0136270000000005
294.40000000000003,-0.0111850000000006
294.6000000000001,-0.0085020000000004
294.8,-0.0069550000000004
295.00000000000006,-0.0070130000000006
295.2,-0.0085390000000002
295.40000000000003,-0.0086560000000006
295.6000000000001,-0.0082400000000006
295.8,-0.0075320000000003
296.00000000000006,-0.0058340000000005
296.2,-0.0053470000000004
296.40000000000003,-0.0070220000000005
296.6000000000001,-0.0093030000000005
296.8,-0.0100470000000005
297.00000000000006,-0.0097070000000005
297.2,-0.0095240000000003
297.40000000000003,-0.0102530000000005
297.6000000000001,-0.0110840000000003
297.8,-0.0127280000000005
298.00000000000006,-0.0157030000000006
298.2,-0.0174050000000005
298.40000000000003,-0.0187430000000006
298.6000000000001,-0.0180400000000005
298.8,-0.0137530000000003
299.00000000000006,-0.0114750000000003
299.2,-0.0079540000000006
299.3999999999999,-0.0136050000000009
299.6,-0.0183880000000007
299.8,-0.022454000000001
299.99999999999994,-0.024967000000001
300.2,-0.0257440000000008
300.3999999999999,-0.0241860000000007
300.6,-0.0212730000000007
300.8,-0.018889000000001
300.99999999999994,-0.0183970000000006
301.2,-0.0185030000000008
301.3999999999999,-0.0198820000000008
301.6,-0.023531000000001
301.8,-0.0263180000000007
301.99999999999994,-0.0286290000000009
302.2,-0.0285010000000007
302.3999999999999,-0.0274520000000006
302.6,-0.0241240000000009
302.8,-0.0229860000000008
302.99999999999994,-0.0230460000000007
303.2,-0.0226340000000009
303.3999999999999,-0.0229190000000008
303.6,-0.0232360000000007
303.8,-0.0219680000000006
303.99999999999994,-0.020357000000001
304.2,-0.0224470000000009
304.3999999999999,-0.0260080000000009
304.6,-0.0298600000000006
304.8,-0.032115000000001
304.99999999999994,-0.0328230000000009
305.2,-0.031912000000001
305.3999999999999,-0.0293050000000008
305.6,-0.025183000000001
305.8,-0.0241040000000007
305.99999999999994,-0.0236240000000007
306.2,-0.0224970000000008
306.3999999999999,-0.0225800000000009
306.6,-0.0240590000000007
306.8,-0.0223080000000006
306.99999999999994,-0.0191700000000007
307.2,-0.0180380000000006
307.3999999999999,-0.017631000000001
307.6,-0.017850000000001
307.8,-0.018438000000001
307.99999999999994,-0.0211950000000009
308.2,-0.0230260000000006
308.3999999999999,-0.0243870000000008
308.6,-0.0252770000000008
308.8,-0.027915000000001
308.99999999999994,-0.0292190000000007
309.2,-0.0299810000000007
309.3999999999999,-0.0294830000000008
309.6,-0.0300300000000008
309.8,-0.0277270000000009
309.99999999999994,-0.025056000000001
310.2,-0.0247340000000009
310.3999999999999,-0.0265540000000008
310.6,-0.0250860000000008
310.8,-0.025094000000001
310.99999999999994,-0.0253240000000007
311.2,-0.025189000000001
311.3999999999999,-0.023410000000001
311.6,-0.0232580000000006
311.8,-0.0235460000000009
311.99999999999994,-0.0237400000000009
312.2,-0.0217500000000008
312.3999999999999,-0.0187370000000006
312.6,-0.017199000000001
312.8,-0.0174430000000009
312.99999999999994,-0.0197610000000008
313.2,-0.0223850000000007
313.3999999999999,-0.024014000000001
313.6,-0.0239210000000009
313.8,-0.0229850000000007
313.99999999999994,-0.020697000000001
314.2,-0.0180940000000009
314.3999999999999,-0.019607000000001
314.6,-0.0226500000000009
314.8,-0.0240590000000007
314.99999999999994,-0.025628000000001
315.2,-0.028646000000001
315.3999999999999,-0.0288630000000007
315.6,-0.0277540000000007
315.8,-0.0270460000000007
315.99999999999994,-0.0272200000000006
316.2,-0.026870000000001
316.3999999999999,-0.0272900000000007
316.6,-0.0283640000000007
316.8,-0.0311230000000009
316.99999999999994,-0.0314460000000007
317.2,-0.0312390000000006
317.3999999999999,-0.0312730000000009
317.6,-0.0315030000000007
317.8,-0.0291600000000009
317.99999999999994,-0.027181000000001
318.2,-0.0257510000000009
318.3999999999999,-0.0240650000000006
318.6,-0.022085000000001
318.8,-0.0212900000000009
318.99999999999994,-0.0209630000000009
319.2,-0.020290000000001
319.3999999999999,-0.020541000000001
319.6,-0.0209800000000006
319.8,-0.020929000000001
319.99999999999994,-0.0215080000000007
320.2,-0.0216670000000007
320.3999999999999,-0.0222650000000008
320.6,-0.0230970000000008
320.8,-0.0248520000000009
320.99999999999994,-0.026339000000001
321.2,-0.0286000000000008
321.3999999999999,-0.029958000000001
321.6,-0.0290510000000008
321.8,-0.0281330000000008
321.99999999999994,-0.0287070000000007
322.2,-0.0301370000000007
322.3999999999999,-0.0296870000000009
322.6,-0.0307260000000009
322.8,-0.031210000000001
322.99999999999994,-0.0315440000000006
323.2,-0.0297130000000009
323.3999999999999,-0.029640000000001
323.6,-0.030813000000001
323.8,-0.0326450000000009
323.99999999999994,-0.0320570000000008
324.2,-0.0317160000000007
324.3999999999999,-0.0295510000000009
324.6,-0.0261880000000007
324.8,-0.022346000000001
324.99999999999994,-0.021100000000001
325.2,-0.0201840000000008
325.3999999999999,-0.0220320000000007
325.6,-0.023953000000001
325.8,-0.0256830000000007
325.99999999999994,-0.0255490000000007
326.2,-0.024916000000001
326.3999999999999,-0.0223570000000008
326.6,-0.0202100000000009
326.8,-0.0194340000000008
326.99999999999994,-0.0206210000000006
327.2,-0.022781000000001
327.3999999999999,-0.0242880000000007
327.6,-0.0251410000000009
327.8,-0.024862000000001
327.99999999999994,-0.0217440000000008
328.2,-0.019099000000001
328.3999999999999,-0.0187320000000008
328.6,-0.018851000000001
328.8,-0.0200470000000008
328.99999999999994,-0.0222740000000007
329.2,-0.0238570000000009
329.3999999999999,-0.0251070000000006
329.6,-0.0255750000000007
329.8,-0.0258190000000007
329.99999999999994,-0.0260130000000007
330.2,-0.0257380000000009
330.3999999999999,-0.0257760000000009
330.6,-0.0265290000000009
330.8,-0.0278530000000007
330.99999999999994,-0.0295730000000009
331.2,-0.0308930000000007
331.3999999999999,-0.029399000000001
331.6,-0.0285370000000009
331.8,-0.0259860000000009
331.99999999999994,-0.0230850000000009
332.2,-0.0216640000000007
332.3999999999999,-0.0224700000000006
332.6,-0.0215280000000008
332.8,-0.0206150000000007
332.99999999999994,-0.022320000000001
333.2,-0.0231070000000008
333.3999999999999,-0.0223020000000007
333.6,-0.0213110000000007
333.8,-0.0225780000000006
333.99999999999994,-0.022174000000001
334.2,-0.0228300000000007
334.3999999999999,-0.0240030000000008
334.6,-0.0255730000000009
334.8,-0.0253470000000008
334.99999999999994,-0.024268000000001
335.2,-0.0235420000000008
335.3999999999999,-0.0247830000000006
335.6,-0.0272900000000007
335.8,-0.028433000000001
335.99999999999994,-0.0289560000000008
336.2,-0.0290840000000009
336.3999999999999,-0.0286900000000009
336.6,-0.0285260000000007
336.8,-0.028811000000001
336.99999999999994,-0.0302640000000007
337.2,-0.0318490000000006
337.3999999999999,-0.0332440000000007
337.6,-0.0325340000000009
337.8,-0.0317410000000006
337.99999999999994,-0.030101000000001
338.2,-0.027734000000001
338.3999999999999,-0.025405000000001
338.6,-0.024023000000001
338.8,-0.021907000000001
338.99999999999994,-0.0196630000000008
339.2,-0.018374000000001
339.3999999999999,-0.0162630000000008
339.6,-0.016522000000001
339.8,-0.0205550000000007
339.99999999999994,-0.0263210000000007
340.2,-0.029380000000001
340.3999999999999,-0.0314010000000006
340.6,-0.0314970000000007
340.8,-0.029478000000001
340.99999999999994,-0.0285490000000008
341.2,-0.0294830000000008
341.3999999999999,-0.031162000000001
341.6,-0.0312410000000009
341.8,-0.029904000000001
341.99999999999994,-0.027226000000001
342.2,-0.025221000000001
342.3999999999999,-0.0238860000000009
342.6,-0.0240910000000007
342.8,-0.0261780000000007
342.99999999999994,-0.027413000000001
343.2,-0.028967000000001
343.3999999999999,-0.0305670000000009
343.6,-0.0304140000000008
343.8,-0.0287210000000008
343.99999999999994,-0.026177000000001
344.2,-0.0240990000000009
344.3999999999999,-0.0219530000000007
344.6,-0.0230840000000007
344.8,-0.0250420000000008
344.99999999999994,-0.0281040000000007
345.2,-0.0276680000000006
345.3999999999999,-0.0265670000000008
345.6,-0.025126000000001
345.8,-0.0235450000000008
345.99999999999994,-0.0219910000000007
346.2,-0.0239110000000009
346.3999999999999,-0.0260570000000006
346.6,-0.0254490000000009
346.8,-0.0256200000000008
346.99999999999994,-0.0248640000000008
347.2,-0.0247790000000009
347.3999999999999,-0.0238310000000008
347.6,-0.0251380000000009
347.8,-0.0258460000000009
347.99999999999994,-0.027391000000001
348.2,-0.0269030000000007
348.3999999999999,-0.0259430000000007
348.6,-0.0232250000000009
348.8,-0.0205960000000007
348.99999999999994,-0.0190260000000006
349.2,-0.0158220000000008
349.3999999999999,-0.0156850000000008
349.6,-0.0180350000000006
349.8,-0.0196500000000008
349.99999999999994,-0.0186530000000009
350.2,-0.0204290000000009
350.3999999999999,-0.0231610000000008
350.6,-0.0244640000000009
350.8,-0.0254290000000008
350.99999999999994,-0.027083000000001
351.2,-0.027397000000001
351.3999999999999,-0.026088000000001
351.6,-0.024894000000001
351.8,-0.026317000000001
351.99999999999994,-0.0283540000000006
352.2,-0.0295700000000009
352.3999999999999,-0.0284290000000009
352.6,-0.0278940000000007
352.8,-0.025933000000001
352.99999999999994,-0.0245110000000008
353.2,-0.024211000000001
353.3999999999999,-0.0266630000000009
353.6,-0.028427000000001
353.8,-0.029281000000001
353.99999999999994,-0.0304500000000009
354.2,-0.0300970000000009
354.3999999999999,-0.0295410000000009
354.6,-0.0293390000000006
354.8,-0.0302210000000009
354.99999999999994,-0.029958000000001
355.2,-0.0315440000000006
355.3999999999999,-0.0314110000000007
355.6,-0.0303750000000007
355.8,-0.0285990000000007
355.99999999999994,-0.0262880000000009
356.2,-0.0241940000000009
356.3999999999999,-0.0224050000000008
356.6,-0.0218950000000006
356.8,-0.0232200000000006
356.99999999999994,-0.0244160000000008
357.2,-0.0246100000000009
357.3999999999999,-0.0244600000000008
357.6,-0.0237890000000007
357.8,-0.023108000000001
357.99999999999994,-0.025116000000001
358.2,-0.0271200000000009
358.3999999999999,-0.0287630000000009
358.6,-0.0314650000000007
358.8,-0.032754000000001
358.99999999999994,-0.0324620000000006
359.2,-0.0304170000000008
359.3999999999999,-0.0299600000000008
359.6,-0.0265010000000009
359.8,-0.0229660000000007
359.99999999999994,-0.0212330000000009
360.2,-0.0215510000000009
360.3999999999999,-0.0202570000000008
360.6,-0.019464000000001
360.8,-0.0204780000000006
361.0,-0.0203360000000007
361.2,-0.0212450000000008
361.3999999999999,-0.022546000000001
361.6,-0.0262690000000009
361.8,-0.0269140000000009
362.0,-0.0266360000000007
362.2,-0.0264140000000008
362.3999999999999,-0.0268720000000008
362.6,-0.0258270000000009
362.8,-0.0250880000000006
363.0,-0.0228980000000009
363.2,-0.020306000000001
363.3999999999999,-0.0180000000000006
363.6,-0.0170160000000008
363.8,-0.0162180000000007
364.0,-0.0168170000000009
364.2,-0.0173110000000007
364.3999999999999,-0.0186120000000009
364.6,-0.0195610000000008
364.8,-0.0216050000000009
365.0,-0.0239460000000009
365.2,-0.0242220000000008
365.3999999999999,-0.0252830000000008
365.6,-0.0257570000000009
365.8,-0.0250000000000008
366.0,-0.023944000000001
366.2,-0.0247680000000007
366.3999999999999,-0.0241620000000009
366.6,-0.0234460000000007
366.8,-0.0238940000000007
367.0,-0.0256520000000008
367.2,-0.0270090000000009
367.3999999999999,-0.0269670000000008
367.6,-0.0259670000000009
367.8,-0.0248390000000009
368.0,-0.0229480000000008
368.2,-0.0209760000000009
368.3999999999999,-0.0188780000000008
368.6,-0.0206710000000009
368.8,-0.023575000000001
369.0,-0.0254790000000006
369.2,-0.0257180000000007
369.3999999999999,-0.027909000000001
369.6,-0.0272230000000006
369.8,-0.0250760000000007
370.0,-0.0250230000000009
370.2,-0.0255710000000006
370.3999999999999,-0.0244860000000008
370.6,-0.0240820000000008
370.8,-0.0244890000000008
371.0,-0.0231170000000009
371.2,-0.0245150000000009
371.3999999999999,-0.0252700000000007
371.6,-0.0255380000000009
371.8,-0.024592000000001
372.0,-0.0250510000000008
372.2,-0.0234730000000009
372.3999999999999,-0.0227370000000006
372.6,-0.020398000000001
372.8,-0.0195960000000008
373.0,-0.018492000000001
373.2,-0.0192140000000007
373.3999999999999,-0.0211960000000006
373.6,-0.0237510000000007
373.8,-0.0249420000000006
374.0,-0.0265630000000007
374.2,-0.0280570000000008
374.3999999999999,-0.0282280000000008
374.6,-0.029513000000001
374.8,-0.0316250000000009
375.0,-0.0326570000000008
375.2,-0.0306310000000009
375.3999999999999,-0.0276780000000007
375.6,-0.0257730000000009
375.8,-0.0248200000000009
376.0,-0.0245930000000007
376.2,-0.0250470000000007
376.3999999999999,-0.0265530000000007
376.6,-0.0256840000000009
376.8,-0.0256300000000009
377.0,-0.025078000000001
377.2,-0.0249420000000006
377.3999999999999,-0.0245080000000008
377.6,-0.0254900000000009
377.8,-0.025072000000001
378.0,-0.025342000000001
378.2,-0.0253140000000007
378.3999999999999,-0.0251140000000007
378.6,-0.0250340000000006
378.8,-0.024633000000001
379.0,-0.023604000000001
379.2,-0.0219320000000009
379.3999999999999,-0.0243900000000008
379.6,-0.0258400000000009
379.8,-0.027067000000001
380.0,-0.025996000000001
380.2,-0.0274730000000009
380.3999999999999,-0.0272710000000007
380.6,-0.0273790000000007
380.8,-0.0266900000000007
381.0,-0.0272340000000008
381.2,-0.0264360000000007
381.3999999999999,-0.0235950000000007
381.6,-0.0211960000000006
381.8,-0.0195670000000007
382.0,-0.018409000000001
382.2,-0.0175150000000008
382.3999999999999,-0.0160840000000006
382.6,-0.0156150000000008
382.8,-0.016382000000001
383.0,-0.018568000000001
383.2,-0.0195160000000007
383.3999999999999,-0.0214160000000007
383.6,-0.0236850000000008
383.8,-0.0236820000000008
384.0,-0.0229340000000006
384.2,-0.0233850000000006
384.3999999999999,-0.023270000000001
384.6,-0.0201780000000009
384.8,-0.017901000000001
385.0,-0.0169910000000008
385.2,-0.0167120000000009
385.3999999999999,-0.0179910000000007
385.6,-0.0197080000000009
385.8,-0.0217180000000007
386.0,-0.0225260000000009
386.2,-0.023099000000001
386.3999999999999,-0.0246200000000009
386.6,-0.0257090000000008
386.8,-0.0255980000000008
387.0,-0.0257470000000008
387.2,-0.028179000000001
387.3999999999999,-0.0287100000000006
387.6,-0.0308640000000006
387.8,-0.0327150000000009
388.0,-0.0322260000000009
388.2,-0.029720000000001
388.3999999999999,-0.0265880000000007
388.6,-0.0232210000000008
388.8,-0.021472000000001
389.0,-0.024096000000001
389.2,-0.0266290000000006
389.3999999999999,-0.030425000000001
389.6,-0.0334900000000009
389.8,-0.035737000000001
390.0,-0.0351930000000009
390.2,-0.033726000000001
390.3999999999999,-0.0306710000000007
390.6,-0.0286560000000006
390.8,-0.0279140000000008
391.0,-0.0278530000000007
391.2,-0.0274650000000007
391.3999999999999,-0.028147000000001
391.6,-0.0285530000000009
391.8,-0.028020000000001
392.0,-0.0273610000000008
392.2,-0.027343000000001
392.3999999999999,-0.0275790000000006
392.6,-0.0273170000000009
392.8,-0.0273470000000006
393.0,-0.024773000000001
393.2,-0.0234000000000009
393.3999999999999,-0.0215030000000009
393.6,-0.0196190000000009
393.8,-0.0187770000000009
394.0,-0.020525000000001
394.2,-0.0235380000000007
394.3999999999999,-0.0259680000000006
394.6,-0.0289260000000006
394.8,-0.0310650000000007
395.0,-0.0333240000000008
395.2,-0.033469000000001
395.3999999999999,-0.0325520000000008
395.6,-0.0308600000000009
395.8,-0.0288380000000008
396.0,-0.0276140000000006
396.2,-0.0265550000000009
396.3999999999999,-0.028074000000001
396.6,-0.0305440000000007
396.8,-0.034085000000001
397.0,-0.0363000000000006
397.2,-0.0383340000000007
397.3999999999999,-0.0390250000000009
397.6,-0.040039000000001
397.8,-0.0407330000000007
398.0,-0.0407900000000007
398.2,-0.040430000000001
398.3999999999999,-0.0381540000000009
398.6,-0.0360820000000008
398.8,-0.0337270000000007
399.0,-0.0328950000000007
399.2,-0.0307380000000008
399.3999999999999,-0.0305430000000006
399.6,-0.0292840000000009
399.8,-0.0281330000000008
400.0,-0.0258200000000008
400.2,-0.0257850000000008
400.3999999999999,-0.0253630000000009
400.6,-0.0249260000000006
400.8,-0.0237230000000008
401.0,-0.0242630000000008
401.2,-0.024878000000001
401.3999999999999,-0.0269340000000006
401.6,-0.0286540000000008
401.8,-0.0300220000000006
402.0,-0.0305740000000009
402.2,-0.0308260000000006
402.3999999999999,-0.028811000000001
402.6,-0.0259790000000008
402.8,-0.0245310000000009
403.0,-0.0233100000000008
403.2,-0.0228680000000007
403.3999999999999,-0.0239590000000009
403.6,-0.024757000000001
403.8,-0.0252640000000008
404.0,-0.0251020000000008
404.2,-0.023645000000001
404.3999999999999,-0.0230560000000008
404.6,-0.0263290000000009
404.8,-0.0299350000000009
405.0,-0.0314710000000006
405.2,-0.0318140000000006
405.3999999999999,-0.0332580000000009
405.6,-0.0326770000000009
405.8,-0.0310810000000008
406.0,-0.031369000000001
406.2,-0.0324530000000007
406.3999999999999,-0.0316810000000007
406.6,-0.029926000000001
406.8,-0.0277170000000008
407.0,-0.0255520000000006
407.2,-0.024964000000001
407.3999999999999,-0.0261110000000006
407.6,-0.0274490000000007
407.8,-0.0274980000000009
408.0,-0.027124000000001
408.2,-0.0281140000000008
408.3999999999999,-0.0296810000000009
408.6,-0.0314500000000008
408.8,-0.0342230000000007
409.0,-0.0365320000000006
409.2,-0.0360530000000007
409.3999999999999,-0.0327810000000008
409.6,-0.0287620000000008
409.8,-0.0272630000000009
410.0,-0.0263830000000009
410.2,-0.026285000000001
410.3999999999999,-0.026492000000001
410.6,-0.0278370000000007
410.8,-0.0278180000000007
411.0,-0.0288900000000009
411.2,-0.0278830000000009
411.3999999999999,-0.0288120000000007
411.6,-0.0302240000000009
411.8,-0.0316270000000007
412.0,-0.0302260000000007
412.2,-0.028274000000001
412.3999999999999,-0.0239620000000009
412.6,-0.0200410000000008
412.8,-0.0190880000000008
413.0,-0.0214420000000008
413.2,-0.0254680000000009
413.3999999999999,-0.0285580000000007
413.6,-0.0318410000000008
413.8,-0.0323180000000009
414.0,-0.0306530000000009
414.2,-0.0294830000000008
414.3999999999999,-0.0290100000000008
414.6,-0.028563000000001
414.8,-0.0295740000000006
415.0,-0.031931000000001
415.2,-0.0349820000000007
415.3999999999999,-0.0372420000000008
415.6,-0.0392600000000009
415.8,-0.038355000000001
416.0,-0.0345700000000008
416.2,-0.0283680000000008
416.3999999999999,-0.0238210000000007
416.6,-0.021221000000001
416.8,-0.019188000000001
417.0,-0.019350000000001
417.2,-0.0202430000000006
417.3999999999999,-0.0203770000000007
417.6,-0.0178260000000007
417.8,-0.0172140000000009
418.0,-0.0173490000000007
418.2,-0.0190500000000009
418.3999999999999,-0.0228580000000007
418.6,-0.026031000000001
418.8,-0.0288960000000009
419.0,-0.031880000000001
419.2,-0.0344210000000009
419.3999999999999,-0.0334420000000008
419.6,-0.031982000000001
419.8,-0.0299510000000009
420.0,-0.0263310000000007
420.2,-0.0228010000000007
420.3999999999999,-0.022171000000001
420.6,-0.023013000000001
420.8,-0.0231540000000007
421.0,-0.0246910000000006
421.2,-0.0272050000000008
421.3999999999999,-0.0298550000000008
421.6,-0.0326230000000009
421.8,-0.0327270000000008
422.0,-0.0318050000000007
422.2,-0.0291070000000006
422.3999999999999,-0.0265040000000009
422.6,-0.0244820000000007
422.8,-0.023648000000001
423.0,-0.0235630000000006
423.2,-0.0238590000000007
423.3999999999999,-0.0236980000000008
423.6,-0.0228080000000008
423.8,-0.0237300000000009
424.0,-0.025027000000001
424.2,-0.0248570000000007
424.3999999999999,-0.0249120000000009
424.6,-0.0257020000000007
424.8,-0.026848000000001
425.0,-0.0278630000000008
425.2,-0.0288510000000008
425.3999999999999,-0.0293400000000008
425.6,-0.0282770000000009
425.8,-0.0261700000000009
426.0,-0.0234140000000007
426.2,-0.023928000000001
426.3999999999999,-0.0251590000000008
426.6,-0.0264010000000007
426.8,-0.0281370000000009
427.0,-0.0300200000000008
427.2,-0.0305960000000009
427.3999999999999,-0.0295760000000009
427.6,-0.0287840000000008
427.8,-0.0263180000000007
428.0,-0.026616000000001
428.2,-0.0265530000000007
428.3999999999999,-0.0284800000000009
428.6,-0.0303660000000007
428.8,-0.033208000000001
429.0,-0.0321360000000008
429.2,-0.030390000000001
429.3999999999999,-0.0291340000000008
429.6,-0.0286310000000007
429.8,-0.0289880000000009
430.0,-0.0290150000000006
430.2,-0.0317040000000008
430.3999999999999,-0.0315970000000009
430.6,-0.0312850000000008
430.8,-0.0309670000000008
431.0,-0.0329790000000009
431.2,-0.0329120000000009
431.3999999999999,-0.0327020000000009
431.6,-0.033612000000001
431.8,-0.0343310000000007
432.0,-0.0337470000000008
432.2,-0.0335660000000008
432.3999999999999,-0.0347210000000006
432.6,-0.0350020000000008
432.8,-0.0339830000000009
433.0,-0.0331650000000007
433.2,-0.0307150000000007
433.3999999999999,-0.028824000000001
433.6,-0.026889000000001
433.8,-0.0280560000000007
434.0,-0.0298870000000008
434.2,-0.0313250000000007
434.3999999999999,-0.0298450000000007
434.6,-0.0282190000000008
434.8,-0.0256430000000009
435.0,-0.0228980000000009
435.2,-0.0221960000000009
435.3999999999999,-0.0236810000000007
435.6,-0.0258010000000008
435.8,-0.027769000000001
436.0,-0.0294490000000009
436.2,-0.0287960000000007
436.3999999999999,-0.0292700000000007
436.6,-0.0295790000000009
436.8,-0.0297520000000006
437.0,-0.0296380000000007
437.2,-0.0316140000000007
437.3999999999999,-0.031648000000001
437.6,-0.0309260000000008
437.8,-0.0293890000000009
438.0,-0.0275860000000007
438.2,-0.027016000000001
438.3999999999999,-0.0274820000000008
438.6,-0.0276560000000007
438.8,-0.0280570000000008
439.0,-0.029399000000001
439.2,-0.029431000000001
439.3999999999999,-0.0298940000000009
439.6,-0.0296230000000008
439.8,-0.029475000000001
440.0,-0.028436000000001
440.2,-0.0279580000000008
440.3999999999999,-0.0288250000000007
440.6,-0.0300890000000007
440.8,-0.0316000000000009
441.0,-0.0331750000000008
441.2,-0.0345020000000007
441.3999999999999,-0.0328380000000008
441.6,-0.0323020000000009
441.8,-0.031715000000001
442.0,-0.0330440000000007
442.2,-0.0339400000000007
442.3999999999999,-0.0340100000000007
442.6,-0.0335810000000007
442.8,-0.033005000000001
443.0,-0.0311390000000009
443.2,-0.0295630000000008
443.3999999999999,-0.027693000000001
443.6,-0.0257350000000009
443.8,-0.0239380000000006
444.0,-0.0226110000000008
444.2,-0.0210680000000009
444.3999999999999,-0.0224690000000009
444.6,-0.0248370000000006
444.8,-0.026155000000001
445.0,-0.0255370000000008
445.2,-0.0251530000000008
445.3999999999999,-0.023146000000001
445.6,-0.020516000000001
445.8,-0.0210340000000006
446.0,-0.0241590000000009
446.2,-0.0262510000000006
446.3999999999999,-0.0282420000000009
446.6,-0.0304230000000007
446.8,-0.0283780000000009
447.0,-0.0245680000000008
447.2,-0.0221590000000007
447.3999999999999,-0.0226280000000009
447.6,-0.0242690000000007
447.8,-0.026476000000001
448.0,-0.0292030000000007
448.2,-0.0322250000000008
448.3999999999999,-0.0335300000000007
448.6,-0.0346650000000008
448.8,-0.034187000000001
449.0,-0.0333460000000007
449.2,-0.0325160000000006
449.3999999999999,-0.0308870000000007
449.6,-0.0281190000000006
449.8,-0.0282770000000009
450.0,-0.0288770000000009
450.2,-0.0290520000000009
450.3999999999999,-0.0285130000000006
450.6,-0.0290610000000008
450.8,-0.0307220000000008
451.0,-0.0317380000000007
451.2,-0.032322000000001
451.3999999999999,-0.0333980000000009
451.6,-0.0324480000000009
451.8,-0.030616000000001
452.0,-0.0310790000000009
452.2,-0.0316680000000006
452.3999999999999,-0.0338480000000007
452.6,-0.0367680000000008
452.8,-0.0377280000000008
453.0,-0.0348050000000008
453.2,-0.0329500000000009
453.3999999999999,-0.0311360000000009
453.6,-0.0298640000000007
453.8,-0.0295810000000007
454.0,-0.0317930000000008
454.2,-0.032935000000001
454.3999999999999,-0.032525000000001
454.6,-0.0311670000000008
454.8,-0.031159000000001
455.0,-0.0313250000000007
455.2,-0.030924000000001
455.3999999999999,-0.030473000000001
455.6,-0.0310420000000006
455.8,-0.0307880000000007
456.0,-0.0287080000000008
456.2,-0.0289610000000006
456.3999999999999,-0.0301840000000006
456.6,-0.0306130000000006
456.8,-0.0320280000000008
457.0,-0.0349000000000008
457.2,-0.0362090000000008
457.3999999999999,-0.0350620000000008
457.6,-0.032970000000001
457.8,-0.030133000000001
458.0,-0.0282780000000006
458.2,-0.026276000000001
458.3999999999999,-0.0264750000000009
458.6,-0.0271760000000007
458.8,-0.0274400000000007
459.0,-0.0267790000000007
459.2,-0.0264810000000008
459.3999999999999,-0.0262530000000009
459.6,-0.026374000000001
459.8,-0.0272960000000006
460.0,-0.0284600000000008
460.2,-0.030136000000001
460.3999999999999,-0.0315390000000008
460.6,-0.0337880000000008
460.8,-0.035750000000001
461.0,-0.0365400000000009
461.2,-0.0354950000000009
461.3999999999999,-0.0321640000000007
461.6,-0.0311120000000006
461.8,-0.0300640000000007
462.0,-0.0304120000000009
462.2,-0.0296590000000009
462.3999999999999,-0.0307990000000009
462.6,-0.0294170000000009
462.8,-0.0277100000000007
463.0,-0.0256230000000008
463.2,-0.0257860000000009
463.3999999999999,-0.0279430000000009
463.6,-0.029399000000001
463.8,-0.0316530000000008
464.0,-0.0323260000000007
464.2,-0.0327650000000008
464.3999999999999,-0.0294600000000007
464.6,-0.0274810000000007
464.8,-0.0256510000000007
465.0,-0.025402000000001
465.2,-0.0241540000000006
465.3999999999999,-0.0267910000000006
465.6,-0.0270690000000008
465.8,-0.026136000000001
466.0,-0.0244720000000007
466.2,-0.025526000000001
466.3999999999999,-0.0253340000000008
466.6,-0.0273540000000007
466.8,-0.029075000000001
467.0,-0.0315080000000009
467.2,-0.0316590000000007
467.3999999999999,-0.032922000000001
467.6,-0.0348010000000007
467.8,-0.036090000000001
468.0,-0.0357920000000007
468.2,-0.0343180000000007
468.3999999999999,-0.031194000000001
468.6,-0.027035000000001
468.8,-0.0241550000000008
469.0,-0.0240980000000008
469.2,-0.0248860000000008
469.3999999999999,-0.0262970000000009
469.6,-0.0265570000000008
469.8,-0.027804000000001
470.0,-0.026644000000001
470.2,-0.0266660000000009
470.3999999999999,-0.0272030000000009
470.6,-0.0290070000000008
470.8,-0.0295920000000009
471.0,-0.0307290000000008
471.2,-0.0316920000000009
471.3999999999999,-0.0314900000000006
471.6,-0.0309350000000008
471.8,-0.032020000000001
472.0,-0.0328750000000006
472.2,-0.0328860000000008
472.3999999999999,-0.0323400000000009
472.6,-0.031394000000001
472.8,-0.0294350000000007
473.0,-0.0277990000000007
473.2,-0.0281880000000009
473.3999999999999,-0.0301640000000009
473.6,-0.0320370000000007
473.8,-0.0340640000000007
474.0,-0.0355280000000006
474.2,-0.0353420000000008
474.3999999999999,-0.0333240000000008
474.6,-0.0330740000000009
474.8,-0.032528000000001
475.0,-0.030962000000001
475.2,-0.0299300000000006
475.3999999999999,-0.0294820000000006
475.6,-0.0280470000000008
475.8,-0.027518000000001
476.0,-0.0287280000000009
476.2,-0.0292540000000007
476.3999999999999,-0.030752000000001
476.6,-0.031334000000001
476.8,-0.0315300000000009
477.0,-0.0295590000000007
477.2,-0.028948000000001
477.3999999999999,-0.0274090000000009
477.6,-0.0256610000000008
477.8,-0.024449000000001
478.0,-0.0268830000000006
478.2,-0.029297000000001
478.3999999999999,-0.0329470000000009
478.6,-0.0353540000000007
478.8,-0.035826000000001
479.0,-0.0352280000000009
479.2,-0.0338320000000007
479.3999999999999,-0.0299660000000008
479.6,-0.0281290000000007
479.8,-0.025723000000001
480.0,-0.024951000000001
480.2,-0.0245450000000007
480.3999999999999,-0.0253660000000008
480.6,-0.0266580000000007
480.8,-0.0285470000000009
481.0,-0.0288280000000007
481.2,-0.0291430000000008
481.3999999999999,-0.0306040000000007
481.6,-0.0320950000000008
481.8,-0.0339150000000008
482.0,-0.032878000000001
482.2,-0.0319540000000007
482.3999999999999,-0.030727000000001
482.6,-0.0297020000000007
482.8,-0.0280450000000009
483.0,-0.0294100000000008
483.2,-0.0288510000000008
483.3999999999999,-0.0282470000000008
483.6,-0.0262580000000007
483.8,-0.0262700000000006
484.0,-0.025955000000001
484.2,-0.0267760000000008
484.3999999999999,-0.027512000000001
484.6,-0.0278780000000007
484.8,-0.0289310000000009
485.0,-0.0299180000000007
485.2,-0.0311100000000008
485.3999999999999,-0.0309140000000009
485.6,-0.0322110000000006
485.8,-0.0307150000000007
486.0,-0.027458000000001
486.2,-0.025440000000001
486.3999999999999,-0.0265060000000008
486.6,-0.0288850000000007
486.8,-0.0305990000000009
487.0,-0.0317490000000009
487.2,-0.032309000000001
487.3999999999999,-0.0322280000000008
487.6,-0.0302580000000007
487.8,-0.0310050000000008
488.0,-0.035086000000001
488.2,-0.0393930000000009
488.3999999999999,-0.0400190000000009
488.6,-0.0382960000000007
488.8,-0.0377380000000009
489.0,-0.0363460000000008
489.2,-0.0346230000000007
489.3999999999999,-0.0334060000000007
489.6,-0.0348300000000008
489.8,-0.0345910000000007
490.0,-0.0348770000000007
490.2,-0.0334350000000007
490.3999999999999,-0.0335440000000009
490.6,-0.0345250000000008
490.8,-0.035407000000001
491.0,-0.034708000000001
491.2,-0.032331000000001
491.3999999999999,-0.0288920000000008
491.6,-0.0266330000000007
491.8,-0.0259190000000009
492.0,-0.0260330000000008
492.2,-0.0281520000000008
492.3999999999999,-0.0327590000000008
492.6,-0.0354150000000008
492.8,-0.036309000000001
493.0,-0.0342960000000007
493.2,-0.0327310000000009
493.3999999999999,-0.0301150000000007
493.6,-0.0275960000000008
493.8,-0.0243940000000009
494.0,-0.0247480000000006
494.2,-0.0256260000000008
494.3999999999999,-0.0279460000000009
494.6,-0.0293650000000007
494.8,-0.0314660000000008
495.0,-0.0330890000000008
495.2,-0.0349380000000008
495.3999999999999,-0.0337880000000008
495.6,-0.0329100000000006
495.8,-0.0316530000000008
496.0,-0.0298740000000008
496.2,-0.028338000000001
496.3999999999999,-0.0273740000000008
496.6,-0.0262210000000009
496.8,-0.0258370000000009
497.0,-0.0240350000000009
497.2,-0.021161000000001
497.3999999999999,-0.0190620000000008
497.6,-0.019356000000001
497.8,-0.021262000000001
498.0,-0.0245170000000007
498.2,-0.0259320000000009
498.3999999999999,-0.0270850000000009
498.6,-0.0268850000000009
498.8,-0.0254680000000009
499.0,-0.0244580000000009
499.2,-0.027264000000001
499.3999999999999,-0.0310120000000009
499.6,-0.0328370000000006
499.8,-0.0332580000000009
500.0,-0.0330220000000007
500.2,-0.0309280000000007
500.3999999999999,-0.0279900000000008
500.6,-0.027010000000001
500.8,-0.0276000000000009
501.0,-0.0276210000000007
501.2,-0.0282260000000009
501.3999999999999,-0.0296730000000007
501.6,-0.0297710000000006
501.8,-0.0291560000000008
502.0,-0.0312300000000007
502.2,-0.031156000000001
502.3999999999999,-0.0303450000000009
502.6,-0.0327340000000009
502.8,-0.0344210000000009
503.0,-0.034136000000001
503.2,-0.0360050000000007
503.3999999999999,-0.037024000000001
503.6,-0.0364120000000007
503.8,-0.0361050000000009
504.0,-0.0350760000000009
504.2,-0.0329990000000006
504.3999999999999,-0.0318840000000006
504.6,-0.0288230000000009
504.8,-0.027159000000001
505.0,-0.0264860000000006
505.2,-0.0275760000000007
505.3999999999999,-0.0281650000000008
505.6,-0.0308940000000008
505.8,-0.032052000000001
506.0,-0.0331900000000007
506.2,-0.0321710000000008
506.3999999999999,-0.0325330000000008
506.6,-0.0326850000000007
506.8,-0.0320640000000009
507.0,-0.0314430000000007
507.2,-0.032131000000001
507.3999999999999,-0.031696000000001
507.6,-0.0300550000000008
507.8,-0.0290380000000007
508.0,-0.027845000000001
508.2,-0.027664000000001
508.3999999999999,-0.0280460000000006
508.6,-0.0291580000000006
508.8,-0.0310630000000009
509.0,-0.0325720000000009
509.2,-0.031407000000001
509.3999999999999,-0.0297780000000007
509.6,-0.0289640000000006
509.8,-0.0296000000000007
510.0,-0.031909000000001
510.2,-0.0359050000000009
510.3999999999999,-0.0391990000000008
510.6,-0.0393480000000008
510.8,-0.0362660000000008
510.9999999999998,-0.0315320000000007
511.1999999999998,-0.0280310000000008
511.3999999999999,-0.0261270000000006
511.5999999999999,-0.0262710000000008
511.8,-0.0266120000000009
511.9999999999998,-0.0276790000000008
512.1999999999998,-0.0273640000000008
512.3999999999999,-0.0264080000000008
512.5999999999999,-0.0246560000000006
512.8,-0.0252500000000006
512.9999999999998,-0.0262170000000008
513.1999999999998,-0.0264970000000008
513.3999999999999,-0.0279890000000007
513.5999999999999,-0.0299510000000009
513.8,-0.030908000000001
513.9999999999998,-0.0304800000000007
514.1999999999998,-0.0316400000000007
514.3999999999999,-0.0321560000000009
514.5999999999999,-0.0332190000000007
514.8,-0.033923000000001
514.9999999999998,-0.0362050000000007
515.1999999999998,-0.038695000000001
515.3999999999999,-0.0385980000000008
515.5999999999999,-0.036668000000001
515.8,-0.0356120000000008
515.9999999999998,-0.0357200000000008
516.1999999999998,-0.0351000000000008
516.3999999999999,-0.0352550000000007
516.5999999999999,-0.0365040000000007
516.8,-0.036471000000001
516.9999999999998,-0.035280000000001
517.1999999999998,-0.0342100000000007
517.3999999999999,-0.0350930000000007
517.5999999999999,-0.0342360000000008
517.8,-0.0332350000000007
517.9999999999998,-0.032735000000001
518.1999999999998,-0.0339500000000008
518.3999999999999,-0.0352310000000009
518.5999999999999,-0.038546000000001
518.8,-0.0405520000000008
518.9999999999998,-0.039000000000001
519.1999999999998,-0.0358540000000009
519.3999999999999,-0.031915000000001
519.5999999999999,-0.027038000000001
519.8,-0.024252000000001
519.9999999999998,-0.0247790000000009
520.1999999999998,-0.0255900000000006
520.3999999999999,-0.027461000000001
520.5999999999999,-0.0288790000000007
520.8,-0.0291500000000008
520.9999999999998,-0.0278870000000006
521.1999999999998,-0.0296190000000007
521.3999999999999,-0.029224000000001
521.5999999999999,-0.0304120000000009
521.8,-0.030727000000001
521.9999999999998,-0.0309360000000009
522.1999999999998,-0.0282660000000007
522.3999999999999,-0.0283580000000007
522.5999999999999,-0.0279800000000007
522.8,-0.0286390000000009
522.9999999999998,-0.029799000000001
523.1999999999998,-0.0316170000000006
523.3999999999999,-0.0313040000000008
523.5999999999999,-0.030260000000001
523.8,-0.030120000000001
523.9999999999998,-0.0299270000000007
524.1999999999998,-0.0282120000000007
524.3999999999999,-0.0293750000000008
524.5999999999999,-0.0316920000000009
524.8,-0.0331900000000007
524.9999999999998,-0.0338920000000007
525.1999999999998,-0.0356240000000007
525.3999999999999,-0.0340650000000009
525.5999999999999,-0.033640000000001
525.8,-0.0342700000000006
525.9999999999998,-0.0374450000000008
526.1999999999998,-0.0386170000000007
526.3999999999999,-0.0400370000000007
526.5999999999999,-0.037488000000001
526.8,-0.0349480000000008
526.9999999999998,-0.0309710000000009
527.1999999999998,-0.0284370000000007
527.3999999999999,-0.0277360000000008
527.5999999999999,-0.029434000000001
527.8,-0.031267000000001
527.9999999999998,-0.032859000000001
528.1999999999998,-0.0320990000000009
528.3999999999999,-0.0312930000000006
528.5999999999999,-0.031359000000001
528.8,-0.0316460000000007
528.9999999999998,-0.0319300000000009
529.1999999999998,-0.0333010000000006
529.3999999999999,-0.0359510000000007
529.5999999999999,-0.0382020000000009
529.8,-0.0385530000000007
529.9999999999998,-0.0376610000000008
530.1999999999998,-0.036894000000001
530.3999999999999,-0.0337870000000006
530.5999999999999,-0.032255000000001
530.8,-0.0339180000000007
530.9999999999998,-0.0367850000000009
531.1999999999998,-0.0401210000000009
531.3999999999999,-0.0415020000000008
531.5999999999999,-0.0396870000000006
531.8,-0.0367770000000007
531.9999999999998,-0.0342400000000009
532.1999999999998,-0.0307510000000008
532.3999999999999,-0.0299950000000008
532.5999999999999,-0.0309980000000007
532.8,-0.031893000000001
532.9999999999998,-0.0313710000000009
533.1999999999998,-0.0316810000000007
533.3999999999999,-0.0310710000000007
533.5999999999999,-0.0306430000000008
533.8,-0.0302690000000009
533.9999999999998,-0.0316190000000009
534.1999999999998,-0.0328220000000007
534.3999999999999,-0.0324890000000008
534.5999999999999,-0.0323020000000009
534.8,-0.0326820000000007
534.9999999999998,-0.0319760000000006
535.1999999999998,-0.0321670000000007
535.3999999999999,-0.0340140000000008
535.5999999999999,-0.035737000000001
535.8,-0.036026000000001
535.9999999999998,-0.035855000000001
536.1999999999998,-0.0346500000000009
536.3999999999999,-0.0337160000000009
536.5999999999999,-0.0330390000000009
536.8,-0.0319220000000006
536.9999999999998,-0.0319450000000007
537.1999999999998,-0.0314060000000009
537.3999999999999,-0.0307120000000007
537.5999999999999,-0.0298190000000007
537.8,-0.030651000000001
537.9999999999998,-0.0312680000000007
538.1999999999998,-0.0327180000000009
538.3999999999999,-0.0320840000000006
538.5999999999999,-0.0315300000000009
538.8,-0.0300230000000008
538.9999999999998,-0.0296200000000008
539.1999999999998,-0.0295470000000008
539.3999999999999,-0.0314900000000006
539.5999999999999,-0.0330570000000007
539.8,-0.0329180000000008
539.9999999999998,-0.0327610000000007
540.1999999999998,-0.032214000000001
540.3999999999999,-0.033472000000001
540.5999999999999,-0.0334480000000008
540.8,-0.0354880000000008
540.9999999999998,-0.0359260000000007
541.1999999999998,-0.0363210000000009
541.3999999999999,-0.0347820000000007
541.5999999999999,-0.0334800000000008
541.8,-0.0306300000000008
541.9999999999998,-0.0295710000000006
542.1999999999998,-0.0290500000000006
542.3999999999999,-0.0294670000000007
542.5999999999999,-0.0300700000000007
542.8,-0.0308600000000009
542.9999999999998,-0.0317160000000007
543.1999999999998,-0.0337940000000007
543.3999999999999,-0.0346940000000008
543.5999999999999,-0.0371710000000007
543.8,-0.0408380000000008
543.9999999999998,-0.0427540000000008
544.1999999999998,-0.041157000000001
544.3999999999999,-0.0391440000000007
544.5999999999999,-0.0357900000000008
544.8,-0.0319940000000009
544.9999999999998,-0.0284340000000007
545.1999999999998,-0.0274060000000009
545.3999999999999,-0.0267930000000009
545.5999999999999,-0.0274930000000006
545.8,-0.0280260000000009
545.9999999999998,-0.0306010000000007
546.1999999999998,-0.0324800000000009
546.3999999999999,-0.0350420000000006
546.5999999999999,-0.0367660000000009
546.8,-0.0374410000000007
546.9999999999998,-0.0376650000000009
547.1999999999998,-0.038276000000001
547.3999999999999,-0.0395090000000006
547.5999999999999,-0.0387980000000007
547.8,-0.0386720000000009
547.9999999999998,-0.0384150000000009
548.1999999999998,-0.0380140000000008
548.3999999999999,-0.036338000000001
548.5999999999999,-0.0353600000000007
548.8,-0.0366700000000008
548.9999999999998,-0.037405000000001
549.1999999999998,-0.0378890000000007
549.3999999999999,-0.0371880000000008
549.5999999999999,-0.0362880000000007
549.8,-0.0358780000000007
549.9999999999998,-0.0352650000000007
550.1999999999998,-0.0337810000000007
550.3999999999999,-0.033307000000001
550.5999999999999,-0.0366190000000008
550.8,-0.0381090000000008
550.9999999999998,-0.039445000000001
551.1999999999998,-0.0402070000000009
551.3999999999999,-0.0408920000000008
551.5999999999999,-0.0389850000000007
551.8,-0.0366930000000009
551.9999999999998,-0.0340950000000006
552.1999999999998,-0.0336540000000007
552.3999999999999,-0.0339370000000007
552.5999999999999,-0.0347230000000009
552.8,-0.0359810000000009
552.9999999999998,-0.0379970000000007
553.1999999999998,-0.0406890000000008
553.3999999999999,-0.0405210000000009
553.5999999999999,-0.0388650000000008
553.8,-0.037993000000001
553.9999999999998,-0.0366180000000007
554.1999999999998,-0.032687000000001
554.3999999999999,-0.029955000000001
554.5999999999999,-0.028903000000001
554.8,-0.0291050000000008
554.9999999999998,-0.0289090000000009
555.1999999999998,-0.030114000000001
555.3999999999999,-0.0330360000000009
555.5999999999999,-0.0349450000000008
555.8,-0.0347730000000008
555.9999999999998,-0.0347830000000009
556.1999999999998,-0.0344650000000008
556.3999999999999,-0.0332190000000007
556.5999999999999,-0.0332110000000009
556.8,-0.0331550000000007
556.9999999999998,-0.0337310000000008
557.1999999999998,-0.0355060000000007
557.3999999999999,-0.0387450000000009
557.5999999999999,-0.0400980000000008
557.8,-0.0398430000000007
557.9999999999998,-0.0374920000000007
558.1999999999998,-0.033815000000001
558.3999999999999,-0.0307060000000007
558.5999999999999,-0.0288160000000008
558.8,-0.027953000000001
558.9999999999998,-0.0284950000000008
559.1999999999998,-0.0300760000000006
559.3999999999999,-0.029227000000001
559.5999999999999,-0.0288800000000009
559.8,-0.0292060000000007
559.9999999999998,-0.0306990000000006
560.1999999999998,-0.0312970000000007
560.3999999999999,-0.0330530000000006
560.5999999999999,-0.0345030000000008
560.8,-0.0340390000000008
560.9999999999998,-0.0318470000000008
561.1999999999998,-0.0314660000000008
561.3999999999999,-0.0316210000000007
561.5999999999999,-0.032163000000001
561.8,-0.0352280000000009
561.9999999999998,-0.038263000000001
562.1999999999998,-0.0393150000000006
562.3999999999999,-0.0397570000000007
562.5999999999999,-0.0382020000000009
562.8,-0.036293000000001
562.9999999999998,-0.0343270000000006
563.1999999999998,-0.0332450000000008
563.3999999999999,-0.032341000000001
563.5999999999999,-0.033151000000001
563.8,-0.0334740000000008
563.9999999999998,-0.0342640000000007
564.1999999999998,-0.0348310000000009
564.3999999999999,-0.0366390000000009
564.5999999999999,-0.0373560000000008
564.8,-0.0356270000000007
564.9999999999998,-0.0342890000000006
565.1999999999998,-0.034193000000001
565.3999999999999,-0.0328570000000008
565.5999999999999,-0.0292310000000006
565.8,-0.027458000000001
565.9999999999998,-0.0270880000000008
566.1999999999998,-0.0275410000000007
566.3999999999999,-0.028255000000001
566.5999999999999,-0.0318660000000008
566.8,-0.036325000000001
566.9999999999998,-0.039769000000001
567.1999999999998,-0.0382020000000009
567.3999999999999,-0.035410000000001
567.5999999999999,-0.0345380000000008
567.8,-0.0339560000000007
567.9999999999998,-0.0323450000000007
568.1999999999998,-0.0329820000000009
568.3999999999999,-0.0355870000000009
568.5999999999999,-0.0373710000000007
568.8,-0.0384390000000007
568.9999999999998,-0.0393830000000008
569.1999999999998,-0.0412220000000007
569.3999999999999,-0.0423590000000007
569.5999999999999,-0.0407390000000007
569.8,-0.0388170000000007
569.9999999999998,-0.0369310000000009
570.1999999999998,-0.035556000000001
570.3999999999999,-0.0334460000000009
570.5999999999999,-0.033942000000001
570.8,-0.0354500000000008
570.9999999999998,-0.0361710000000008
571.1999999999998,-0.0351770000000009
571.3999999999999,-0.0330120000000007
571.5999999999999,-0.0308010000000007
571.8,-0.0290490000000009
572.0,-0.0286890000000008
572.1999999999998,-0.0295690000000008
572.3999999999999,-0.0310060000000009
572.5999999999999,-0.0307020000000006
572.8,-0.0311570000000007
573.0,-0.0318190000000009
573.1999999999998,-0.0316520000000006
573.3999999999999,-0.0320790000000008
573.5999999999999,-0.0339880000000007
573.8,-0.0341570000000008
574.0,-0.0330350000000008
574.1999999999998,-0.0338990000000007
574.3999999999999,-0.0349670000000008
574.5999999999999,-0.0352530000000008
574.8,-0.0348990000000006
575.0,-0.0354280000000009
575.1999999999998,-0.0351930000000009
575.3999999999999,-0.035947000000001
575.5999999999999,-0.0379130000000009
575.8,-0.039594000000001
576.0,-0.040163000000001
576.1999999999998,-0.0379700000000009
576.3999999999999,-0.0368690000000007
576.5999999999999,-0.0350560000000008
576.8,-0.0339540000000009
577.0,-0.0333740000000006
577.1999999999998,-0.0356250000000009
577.3999999999999,-0.0372010000000009
577.5999999999999,-0.0377110000000007
577.8,-0.0386320000000006
578.0,-0.0400160000000009
578.1999999999998,-0.040239000000001
578.3999999999999,-0.0396090000000008
578.5999999999999,-0.039731000000001
578.8,-0.0400380000000009
579.0,-0.0390310000000009
579.1999999999998,-0.0383820000000008
579.3999999999999,-0.0371500000000009
579.5999999999999,-0.0355760000000007
579.8,-0.034962000000001
580.0,-0.0354030000000009
580.1999999999998,-0.0362480000000009
580.3999999999999,-0.0365330000000008
580.5999999999999,-0.036649000000001
580.8,-0.0366770000000009
581.0,-0.036608000000001
581.1999999999998,-0.0353520000000009
581.3999999999999,-0.0348170000000007
581.5999999999999,-0.035985000000001
581.8,-0.0335430000000007
582.0,-0.0324630000000008
582.1999999999998,-0.0322910000000007
582.3999999999999,-0.032611000000001
582.5999999999999,-0.030800000000001
582.8,-0.0310680000000007
583.0,-0.0312220000000009
583.1999999999998,-0.030476000000001
583.3999999999999,-0.028678000000001
583.5999999999999,-0.0261070000000009
583.8,-0.0238100000000009
584.0,-0.0220230000000007
584.1999999999998,-0.0216700000000007
584.3999999999999,-0.0214680000000009
584.5999999999999,-0.0240270000000006
584.8,-0.0274920000000009
585.0,-0.0306430000000008
585.1999999999998,-0.032684000000001
585.3999999999999,-0.0371200000000007
585.5999999999999,-0.039693000000001
585.8,-0.039747000000001
586.0,-0.0380210000000009
586.1999999999998,-0.0369280000000009
586.3999999999999,-0.034571000000001
586.5999999999999,-0.034654000000001
586.8,-0.0351700000000008
587.0,-0.035057000000001
587.1999999999998,-0.0345640000000009
587.3999999999999,-0.0330520000000009
587.5999999999999,-0.0310530000000008
587.8,-0.0303580000000009
588.0,-0.0315830000000008
588.1999999999998,-0.031918000000001
588.3999999999999,-0.034349000000001
588.5999999999999,-0.036703000000001
588.8,-0.0396920000000009
589.0,-0.0399870000000008
589.1999999999998,-0.0403010000000008
589.3999999999999,-0.0387550000000009
589.5999999999999,-0.0358750000000007
589.8,-0.034209000000001
590.0,-0.034781000000001
590.1999999999998,-0.0363960000000007
590.3999999999999,-0.037148000000001
590.5999999999999,-0.0387580000000009
590.8,-0.0378930000000008
591.0,-0.0353640000000008
591.1999999999998,-0.032919000000001
591.3999999999999,-0.0315040000000008
591.5999999999999,-0.0313310000000006
591.8,-0.0321480000000007
592.0,-0.0343450000000009
592.1999999999998,-0.0348070000000007
592.3999999999999,-0.0337090000000008
592.5999999999999,-0.0326370000000006
592.8,-0.0318190000000009
593.0,-0.0317410000000006
593.1999999999998,-0.0334540000000007
593.3999999999999,-0.036490000000001
593.5999999999999,-0.037094000000001
593.8,-0.0360980000000008
594.0,-0.0357190000000007
594.1999999999998,-0.035391000000001
594.3999999999999,-0.0334100000000008
594.5999999999999,-0.031677000000001
594.8,-0.0306100000000006
595.0,-0.0296350000000007
595.1999999999998,-0.0290120000000007
595.3999999999999,-0.0298830000000007
595.5999999999999,-0.0314740000000006
595.8,-0.0328260000000009
596.0,-0.0343590000000006
596.1999999999998,-0.0340920000000006
596.3999999999999,-0.0334100000000008
596.5999999999999,-0.0320690000000007
596.8,-0.030867000000001
597.0,-0.0296700000000007
597.1999999999998,-0.0297810000000007
597.3999999999999,-0.0298380000000006
