Time (s),Shift (nm)
0.0,0.0
0.1999999999999886,-0.000639
0.3999999999999772,6.399999999961992e-05
0.6000000000000227,0.0014639999999999
0.8000000000000114,0.0049339999999999
1.0,0.0062319999999997
1.1999999999999886,0.0070149999999999
1.3999999999999773,0.0051989999999997
1.6000000000000227,0.0033769999999999
1.8000000000000114,-0.00014
2.0,0.0004499999999998
2.1999999999999886,0.0026149999999995
2.3999999999999773,0.0042139999999997
2.6000000000000227,0.0039729999999997
2.800000000000012,0.0051479999999997
3.0,0.0071119999999997
3.1999999999999886,0.0080679999999997
3.3999999999999773,0.0099019999999998
3.6000000000000227,0.0124839999999997
3.8000000000000114,0.0135399999999998
4.0,0.0109709999999996
4.199999999999989,0.0075019999999996
4.399999999999977,0.0055389999999997
4.600000000000023,0.0044359999999996
4.800000000000011,0.0034469999999999
5.0,0.0038659999999999
5.199999999999989,0.0042919999999999
5.399999999999977,0.0026779999999999
5.600000000000023,0.0011459999999998
5.800000000000011,0.0013429999999998
6.0,0.0003759999999997
6.199999999999989,0.0005319999999997
6.399999999999977,0.0029239999999997
6.600000000000023,0.0068789999999996
6.800000000000011,0.0080569999999999
7.0,0.0098369999999996
7.199999999999989,0.0105389999999996
7.399999999999977,0.0106779999999999
7.600000000000023,0.0079509999999998
7.800000000000011,0.0070089999999995
8.0,0.0084949999999999
8.199999999999989,0.0103179999999998
8.399999999999977,0.0128629999999998
8.600000000000023,0.0133799999999997
8.800000000000011,0.0140289999999998
9.0,0.0115249999999997
9.199999999999989,0.0078169999999997
9.399999999999975,0.0028139999999998
9.600000000000025,0.0019579999999996
9.800000000000011,0.0019489999999997
10.0,0.0012619999999996
10.199999999999989,0.0027199999999996
10.399999999999975,0.0054349999999998
10.600000000000025,0.0078429999999998
10.800000000000011,0.0072929999999997
11.0,0.0071669999999999
11.199999999999989,0.0067309999999998
11.399999999999975,0.0059919999999999
11.600000000000025,0.0039739999999999
11.800000000000011,0.0039649999999999
12.0,0.0047709999999998
12.199999999999989,0.0050309999999997
12.399999999999975,0.0039789999999997
12.600000000000025,0.0050609999999999
12.800000000000011,0.0055289999999996
13.0,0.0055979999999999
13.199999999999989,0.0052389999999999
13.399999999999975,0.0050469999999998
13.600000000000025,0.0041169999999999
13.800000000000011,0.0025609999999995
14.0,0.0015949999999995
14.199999999999989,0.0008479999999999
14.399999999999975,0.0012449999999999
14.600000000000025,0.0013159999999996
14.800000000000011,0.0014769999999999
15.0,0.0024019999999995
15.199999999999989,0.0033989999999999
15.399999999999975,0.0030379999999996
15.600000000000025,0.0020049999999995
15.800000000000011,0.0021009999999996
16.0,0.0024549999999998
16.19999999999999,0.0051709999999998
16.399999999999977,0.0072429999999998
16.600000000000023,0.0073589999999996
16.80000000000001,0.0058649999999995
17.0,0.0038529999999998
17.19999999999999,0.0008759999999998
17.399999999999977,0.0002439999999999
17.600000000000023,-2.000000000279556e-06
17.80000000000001,0.0012989999999999
18.0,0.0033149999999997
18.19999999999999,0.0041259999999998
18.399999999999977,0.0034969999999998
18.600000000000023,0.0055979999999999
18.80000000000001,0.0071489999999996
19.0,0.0066599999999996
19.19999999999999,0.0073209999999996
19.399999999999977,0.0100879999999996
19.600000000000023,0.0103899999999996
19.80000000000001,0.0110119999999995
20.0,0.0121559999999996
20.19999999999999,0.0126919999999999
20.399999999999977,0.0122209999999998
20.600000000000023,0.0117939999999996
20.80000000000001,0.0105119999999998
21.0,0.0093259999999997
21.19999999999999,0.0058569999999997
21.399999999999977,0.0028539999999996
21.600000000000023,0.0026089999999996
21.80000000000001,0.0035599999999997
22.0,0.0042039999999996
22.19999999999999,0.0075649999999996
22.399999999999977,0.0092549999999995
22.600000000000023,0.0091219999999996
22.80000000000001,0.0081649999999999
23.0,0.0087389999999998
23.19999999999999,0.0086359999999996
23.399999999999977,0.0084329999999996
23.600000000000023,0.0094129999999998
23.80000000000001,0.0100379999999997
24.0,0.0086279999999998
24.19999999999999,0.0065569999999999
24.399999999999977,0.0052469999999997
24.600000000000023,0.0051549999999997
24.80000000000001,0.0058849999999996
25.0,0.0070889999999996
25.19999999999999,0.0088839999999996
25.399999999999977,0.0113289999999999
25.600000000000023,0.0113069999999999
25.80000000000001,0.0105089999999998
26.0,0.0100179999999996
26.19999999999999,0.0089469999999995
26.399999999999977,0.0078669999999996
26.600000000000023,0.0079129999999998
26.80000000000001,0.0083379999999997
27.0,0.0073339999999997
27.19999999999999,0.0069819999999998
27.399999999999977,0.0060959999999998
27.600000000000023,0.0039259999999998
27.80000000000001,0.0015399999999998
28.0,0.0017029999999995
28.19999999999999,0.0020899999999999
28.399999999999977,0.0019659999999999
28.600000000000023,0.0035109999999995
28.80000000000001,0.0053299999999998
29.0,0.0072239999999998
29.19999999999999,0.0069389999999995
29.399999999999977,0.0055479999999996
29.600000000000023,0.0035199999999999
29.80000000000001,0.0032649999999998
30.0,0.0018579999999999
30.19999999999999,0.0021469999999998
30.399999999999977,0.0064089999999996
30.600000000000023,0.0117739999999999
30.80000000000001,0.0125519999999998
31.0,0.0110289999999997
31.19999999999999,0.0096229999999999
31.399999999999977,0.0063629999999998
31.600000000000023,0.0014479999999998
31.80000000000001,-0.0001030000000001
32.0,0.0020239999999995
32.19999999999999,0.0038359999999997
32.39999999999998,0.0050339999999997
32.60000000000002,0.0063379999999999
32.80000000000001,0.0063699999999999
33.0,0.0052929999999999
33.19999999999999,0.0049949999999996
33.39999999999998,0.0054069999999999
33.60000000000002,0.0063849999999998
33.80000000000001,0.0086209999999997
34.0,0.0083389999999998
34.19999999999999,0.0079149999999996
34.39999999999998,0.0057689999999999
34.60000000000002,0.0038409999999999
34.80000000000001,0.0013179999999999
35.0,0.0006929999999996
35.19999999999999,-0.000604
35.39999999999998,-0.0009070000000002
35.60000000000002,-0.0026750000000004
35.80000000000001,-0.0032480000000001
36.0,-0.0019
36.19999999999999,-0.0010790000000002
36.39999999999998,-0.0001300000000004
36.60000000000002,0.0010209999999997
36.80000000000001,0.0006239999999997
37.0,7.899999999994023e-05
37.19999999999999,0.0002279999999998
37.39999999999998,0.0014979999999997
37.60000000000002,0.0027619999999997
37.80000000000001,0.0044879999999998
38.0,0.0058459999999995
38.19999999999999,0.0068139999999998
38.39999999999998,0.0077779999999996
38.60000000000002,0.0092719999999997
38.80000000000001,0.0084109999999997
39.0,0.0059179999999998
39.19999999999999,0.0052669999999999
39.39999999999998,0.0042259999999996
39.60000000000002,0.0020739999999999
39.80000000000001,0.0013449999999997
40.0,0.0014529999999997
40.19999999999999,0.0010039999999995
40.39999999999998,-0.0009960000000002
40.60000000000002,-0.0018170000000004
40.80000000000001,-0.001217
41.0,-0.0008850000000002
41.19999999999999,0.0003769999999998
41.39999999999998,0.0024489999999999
41.60000000000002,0.0060219999999997
41.80000000000001,0.0076149999999999
42.0,0.0081959999999998
42.19999999999999,0.0083259999999998
42.39999999999998,0.0103239999999997
42.60000000000002,0.0101059999999999
42.80000000000001,0.0090409999999998
43.0,0.0084809999999997
43.19999999999999,0.0068809999999999
43.39999999999998,0.0025959999999995
43.60000000000002,0.0003259999999998
43.80000000000001,6.699999999959516e-05
44.0,-0.0008160000000003
44.19999999999999,-0.0016420000000003
44.39999999999998,-0.002469
44.60000000000002,-0.005951
44.80000000000001,-0.008912
45.0,-0.0108830000000001
45.19999999999999,-0.0111090000000002
45.39999999999998,-0.0104670000000002
45.60000000000002,-0.007997
45.80000000000001,-0.0048150000000002
46.0,-2.4000000000246047e-05
46.19999999999999,0.0036799999999996
46.39999999999998,0.0055579999999997
46.60000000000002,0.0075309999999997
46.80000000000001,0.0074459999999998
47.0,0.0071089999999998
47.19999999999999,0.0064999999999999
47.39999999999998,0.0084979999999998
47.60000000000002,0.0090509999999999
47.80000000000001,0.0091379999999996
48.0,0.0079889999999998
48.19999999999999,0.0065769999999996
48.39999999999998,0.0044769999999996
48.60000000000002,0.0041619999999999
48.80000000000001,0.0047989999999997
49.0,0.0058969999999995
49.19999999999999,0.0066399999999999
49.39999999999998,0.0065469999999998
49.60000000000002,0.0042479999999995
49.80000000000001,0.0023999999999997
50.0,0.0003969999999999
50.19999999999999,-0.0007190000000001
50.39999999999998,-0.000734
50.60000000000002,-0.0009510000000001
50.80000000000001,-0.0011450000000001
51.0,-0.0002120000000003
51.19999999999999,0.0011059999999996
51.39999999999998,0.0023079999999997
51.60000000000002,0.0050969999999996
51.80000000000001,0.0066149999999995
52.0,0.0053009999999997
52.19999999999999,0.0018389999999999
52.39999999999998,-0.0010690000000002
52.60000000000002,-0.002793
52.80000000000001,-0.0029959999999999
53.0,-0.0011490000000002
53.19999999999999,0.0011839999999998
53.39999999999998,0.0024819999999996
53.60000000000002,0.0024009999999998
53.80000000000001,0.0001529999999996
54.0,-0.0019590000000002
54.19999999999999,-0.0022640000000002
54.39999999999998,-0.0021760000000004
54.60000000000002,-0.0007220000000001
54.80000000000001,0.0027779999999997
55.0,0.0068329999999998
55.19999999999999,0.0095989999999996
55.39999999999998,0.0113919999999998
55.60000000000002,0.0083889999999997
55.80000000000001,0.004413
56.0,0.0001359999999999
56.19999999999999,-0.0025670000000004
56.39999999999998,-0.0041650000000004
56.60000000000002,-0.002253
56.80000000000001,-0.0010560000000001
57.0,-0.001179
57.19999999999999,-0.002364
57.39999999999998,-0.0035990000000003
57.60000000000002,-0.0049750000000003
57.80000000000001,-0.0051510000000001
58.0,-0.0047330000000003
58.19999999999999,-0.004779
58.39999999999998,-0.0041310000000001
58.60000000000002,-0.0021710000000001
58.80000000000001,-0.0002360000000001
59.0,0.0019669999999996
59.200000000000045,0.0027759999999998
59.39999999999998,0.0035449999999999
59.60000000000002,0.0020569999999997
59.79999999999996,0.0019839999999997
60.0,0.0001789999999997
60.200000000000045,0.0005649999999999
60.39999999999998,-0.00157
60.60000000000002,-0.002984
60.79999999999996,-0.0043170000000003
61.0,-0.0020010000000003
61.200000000000045,-0.0008940000000001
61.39999999999998,0.0003839999999999
61.60000000000002,0.0008859999999999
61.79999999999996,0.0018209999999996
62.0,-5.3999999999998494e-05
62.200000000000045,-0.0019570000000004
62.39999999999998,-0.0042270000000002
62.60000000000002,-0.0034830000000001
62.79999999999996,-0.0043040000000003
63.0,-0.0049580000000002
63.200000000000045,-0.00523
63.39999999999998,-0.0041610000000003
63.60000000000002,-0.0053130000000001
63.79999999999996,-0.0063530000000002
64.0,-0.0086840000000001
64.20000000000005,-0.0104540000000001
64.39999999999998,-0.0114510000000001
64.60000000000002,-0.012645
64.79999999999995,-0.015247
65.0,-0.0159410000000002
65.20000000000005,-0.0159980000000001
65.39999999999998,-0.0140660000000001
65.60000000000002,-0.0100280000000001
65.79999999999995,-0.0048690000000002
66.0,-0.001678
66.20000000000005,0.0020499999999996
66.39999999999998,0.0025219999999999
66.60000000000002,0.0005089999999996
66.79999999999995,-0.002663
67.0,-0.0043070000000002
67.20000000000005,-0.0067020000000002
67.39999999999998,-0.007343
67.60000000000002,-0.006097
67.79999999999995,-0.0048760000000003
68.0,-0.0041630000000001
68.20000000000005,-0.0057820000000003
68.39999999999998,-0.0074580000000001
68.60000000000002,-0.0095530000000003
68.79999999999995,-0.0094730000000002
69.0,-0.0081220000000001
69.20000000000005,-0.0054660000000001
69.39999999999998,-0.0047940000000004
69.60000000000002,-0.0052370000000001
69.79999999999995,-0.0048270000000001
70.0,-0.0046270000000001
70.20000000000005,-0.0067640000000004
70.39999999999998,-0.0077910000000001
70.60000000000002,-0.0067680000000001
70.79999999999995,-0.0062330000000003
71.0,-0.0071480000000003
71.20000000000005,-0.00692
71.39999999999998,-0.006752
71.60000000000002,-0.006561
71.79999999999995,-0.0061580000000001
72.0,-0.0053870000000002
72.20000000000005,-0.0023330000000001
72.39999999999998,0.0005379999999997
72.60000000000002,0.0020859999999998
72.79999999999995,0.0013109999999998
73.0,0.0022929999999998
73.20000000000005,0.0027879999999997
73.39999999999998,0.0034859999999996
73.60000000000002,0.0025129999999999
73.79999999999995,0.0014489999999995
74.0,-0.000747
74.20000000000005,-0.0022380000000001
74.39999999999998,-0.0039490000000004
74.60000000000002,-0.003743
74.79999999999995,-0.0033940000000001
75.0,-0.0050240000000001
75.20000000000005,-0.0078720000000003
75.39999999999998,-0.0097430000000002
75.60000000000002,-0.0107720000000002
75.79999999999995,-0.0108990000000002
76.0,-0.0086289999999999
76.20000000000005,-0.0069890000000003
76.39999999999998,-0.0081220000000001
76.60000000000002,-0.0089900000000002
76.79999999999995,-0.0087260000000002
77.0,-0.006707
77.20000000000005,-0.0059379999999999
77.39999999999998,-0.0049210000000003
77.60000000000002,-0.0048080000000001
77.79999999999995,-0.0057910000000003
78.0,-0.0094280000000002
78.20000000000005,-0.0119250000000001
78.39999999999998,-0.012388
78.60000000000002,-0.0114810000000002
78.79999999999995,-0.0115830000000003
79.0,-0.01025
79.20000000000005,-0.0076640000000001
79.39999999999998,-0.0042630000000003
79.60000000000002,-0.0021430000000002
79.79999999999995,0.0009319999999997
80.0,0.0007769999999998
80.20000000000005,-0.0016220000000002
80.39999999999998,-0.0049930000000002
80.60000000000002,-0.0091140000000002
80.79999999999995,-0.0136200000000004
81.0,-0.0167140000000003
81.20000000000005,-0.0169300000000003
81.39999999999998,-0.0165070000000002
81.60000000000002,-0.0145730000000003
81.79999999999995,-0.0116110000000002
82.0,-0.0081930000000003
82.20000000000005,-0.0058200000000003
82.39999999999998,-0.0045290000000002
82.60000000000002,-0.0036620000000002
82.79999999999995,-0.004064
83.0,-0.0040040000000001
83.20000000000005,-0.0043330000000003
83.39999999999998,-0.0047650000000003
83.60000000000002,-0.0070420000000002
83.79999999999995,-0.0067280000000002
84.0,-0.0064240000000004
84.20000000000005,-0.005471
84.39999999999998,-0.0043890000000001
84.60000000000002,-0.0020790000000001
84.79999999999995,-0.0009580000000002
85.0,-0.0006500000000002
85.20000000000005,-0.00156
85.39999999999998,-0.0017560000000003
85.60000000000002,-0.0020860000000002
85.79999999999995,-0.0023940000000002
86.0,-0.0018040000000003
86.20000000000005,-0.0026100000000002
86.39999999999998,-0.0033310000000001
86.60000000000002,-0.0043600000000001
86.79999999999995,-0.0068540000000001
87.0,-0.0093930000000002
87.20000000000005,-0.0089990000000002
87.39999999999998,-0.0079470000000001
87.60000000000002,-0.0070990000000001
87.79999999999995,-0.0047860000000001
88.0,-0.0019390000000001
88.20000000000005,-0.001554
88.39999999999998,-0.0032850000000004
88.60000000000002,-0.0053420000000001
88.79999999999995,-0.0062570000000001
89.0,-0.0065340000000002
89.20000000000005,-0.0047640000000002
89.39999999999998,-0.0038520000000001
89.60000000000002,-0.0017110000000002
89.79999999999995,-0.0028190000000001
90.0,-0.0055140000000002
90.20000000000005,-0.008143
90.39999999999998,-0.0089530000000004
90.60000000000002,-0.0091840000000003
90.79999999999995,-0.009592
91.0,-0.011708
91.20000000000005,-0.0130940000000001
91.39999999999998,-0.0119770000000003
91.60000000000002,-0.0111250000000002
91.79999999999995,-0.0104220000000001
92.0,-0.008143
92.20000000000005,-0.0071620000000001
92.39999999999998,-0.0072750000000003
92.60000000000002,-0.0078990000000001
92.79999999999995,-0.0076740000000001
93.0,-0.0076880000000003
93.20000000000005,-0.0072450000000001
93.39999999999998,-0.008207
93.60000000000002,-0.0085410000000001
93.79999999999995,-0.0071210000000001
94.0,-0.003997
94.20000000000005,-0.002002
94.39999999999998,-0.0001990000000002
94.60000000000002,-0.000785
94.79999999999995,-0.0022390000000003
95.0,-0.006745
95.20000000000005,-0.0093780000000003
95.39999999999998,-0.0116810000000002
95.60000000000002,-0.0132280000000002
95.79999999999995,-0.0146030000000001
96.0,-0.013112
96.20000000000005,-0.0106320000000001
96.39999999999998,-0.008264
96.60000000000002,-0.0062450000000002
96.79999999999995,-0.005624
97.0,-0.006456
97.20000000000005,-0.0081660000000001
97.39999999999998,-0.0090600000000002
97.60000000000002,-0.009525
97.79999999999995,-0.0098100000000003
98.0,-0.0101920000000004
98.20000000000005,-0.011902
98.39999999999998,-0.015066
98.60000000000002,-0.0172130000000003
98.79999999999995,-0.017929
99.0,-0.0171040000000002
99.20000000000005,-0.0141390000000001
99.39999999999998,-0.0108940000000004
99.60000000000002,-0.009916
99.79999999999995,-0.009103
100.0,-0.0077610000000003
100.20000000000005,-0.0054960000000003
100.39999999999998,-0.0041680000000003
100.60000000000002,-0.0020960000000003
100.79999999999995,-0.0006150000000002
101.0,-0.0001730000000002
101.20000000000005,-0.0006240000000001
101.39999999999998,-0.0018760000000002
101.60000000000002,-0.0024740000000003
101.79999999999995,-0.003845
102.0,-0.004007
102.20000000000005,-0.0065350000000004
102.39999999999998,-0.0068640000000002
102.60000000000002,-0.0071770000000004
102.79999999999995,-0.005316
103.0,-0.0055780000000003
103.20000000000005,-0.0054010000000004
103.39999999999998,-0.0064000000000001
103.60000000000002,-0.007702
103.79999999999995,-0.0099180000000003
104.0,-0.0111990000000004
104.20000000000005,-0.012645
104.39999999999998,-0.0128660000000002
104.60000000000002,-0.0132380000000003
104.79999999999995,-0.0128250000000003
105.0,-0.0141230000000001
105.20000000000005,-0.0146610000000002
105.39999999999998,-0.0147090000000003
105.60000000000002,-0.0129890000000001
105.79999999999995,-0.01288
106.0,-0.0131270000000003
106.20000000000005,-0.013309
106.39999999999998,-0.014952
106.60000000000002,-0.01668
106.79999999999995,-0.0175660000000004
107.0,-0.0163600000000001
107.20000000000005,-0.0160400000000002
107.39999999999998,-0.0146400000000004
107.60000000000002,-0.0133
107.79999999999995,-0.0127000000000001
108.0,-0.0117370000000001
108.20000000000005,-0.008925
108.39999999999998,-0.0060090000000001
108.60000000000002,-0.0030130000000001
108.79999999999995,-0.0012690000000001
109.0,-0.001287
109.20000000000005,-0.0034450000000001
109.39999999999998,-0.0057390000000001
109.60000000000002,-0.0091700000000001
109.79999999999995,-0.0108750000000004
110.0,-0.0110300000000003
110.20000000000005,-0.0098670000000002
110.39999999999998,-0.0090720000000001
110.60000000000002,-0.0097560000000003
110.79999999999995,-0.011492
111.0,-0.0131450000000001
111.20000000000005,-0.0120560000000002
111.39999999999998,-0.0113380000000002
111.60000000000002,-0.0080440000000003
111.79999999999995,-0.0063460000000001
112.0,-0.005624
112.20000000000005,-0.0080380000000004
112.39999999999998,-0.0113260000000003
112.60000000000002,-0.0141710000000001
112.79999999999995,-0.0146330000000003
113.0,-0.0148070000000002
113.20000000000005,-0.0155190000000002
113.39999999999998,-0.0150050000000003
113.60000000000002,-0.0146590000000004
113.79999999999995,-0.0133430000000003
114.0,-0.0127830000000002
114.20000000000005,-0.0108870000000003
114.39999999999998,-0.0093470000000004
114.60000000000002,-0.0086180000000002
114.79999999999995,-0.009643
115.0,-0.0088220000000003
115.20000000000005,-0.009535
115.39999999999998,-0.009811
115.60000000000002,-0.00936
115.79999999999995,-0.0077850000000001
116.0,-0.006539
116.20000000000005,-0.0055470000000004
116.39999999999998,-0.0035150000000001
116.60000000000002,-0.0028230000000002
116.79999999999995,-0.002955
117.0,-0.0052390000000004
117.20000000000005,-0.0058920000000002
117.39999999999998,-0.0068840000000003
117.60000000000002,-0.0071610000000004
117.79999999999995,-0.007533
118.0,-0.007749
118.20000000000005,-0.0077510000000002
118.39999999999998,-0.0093640000000001
118.60000000000002,-0.0102290000000002
118.79999999999995,-0.010691
119.0,-0.0108860000000001
119.20000000000005,-0.011006
119.39999999999998,-0.010272
119.60000000000002,-0.0100890000000002
119.79999999999995,-0.0101980000000003
120.0,-0.0081460000000004
120.20000000000005,-0.008512
120.39999999999998,-0.008153
120.60000000000002,-0.0100170000000003
120.79999999999995,-0.011994
121.0,-0.0139800000000001
121.20000000000005,-0.0147950000000003
121.39999999999998,-0.0164430000000002
121.60000000000002,-0.0154940000000003
121.79999999999995,-0.0138360000000004
122.0,-0.0118450000000001
122.20000000000005,-0.0107510000000003
122.39999999999998,-0.007886
122.60000000000002,-0.0081420000000003
122.79999999999995,-0.0073660000000002
123.0,-0.0083220000000001
123.20000000000005,-0.0081110000000004
123.39999999999998,-0.0098760000000002
123.60000000000002,-0.0087420000000002
123.79999999999995,-0.0078400000000002
124.0,-0.0072610000000001
124.20000000000005,-0.007082
124.39999999999998,-0.0059940000000002
124.60000000000002,-0.004607
124.79999999999995,-0.0049000000000001
125.0,-0.00414
125.20000000000005,-0.0055430000000002
125.39999999999998,-0.0084540000000004
125.60000000000002,-0.012817
125.79999999999995,-0.0148480000000001
126.0,-0.0176700000000002
126.20000000000005,-0.0178700000000002
126.39999999999998,-0.0168430000000001
126.60000000000002,-0.0152740000000002
126.79999999999995,-0.0138950000000002
127.0,-0.0127620000000003
127.20000000000005,-0.012073
127.39999999999998,-0.0130630000000002
127.60000000000002,-0.013722
127.79999999999995,-0.0146170000000003
128.0,-0.014885
128.20000000000005,-0.014224
128.39999999999998,-0.0121640000000002
128.60000000000002,-0.0111050000000001
128.79999999999995,-0.0116900000000002
129.0,-0.0128890000000003
129.20000000000005,-0.0135050000000003
129.39999999999998,-0.0146480000000002
129.60000000000002,-0.0133010000000002
129.79999999999995,-0.0104160000000002
130.0,-0.0059940000000002
130.20000000000005,-0.0051290000000001
130.39999999999998,-0.005433
130.60000000000002,-0.0079880000000001
130.79999999999995,-0.0120270000000002
131.0,-0.015279
131.20000000000005,-0.0158600000000004
131.39999999999998,-0.0142010000000003
131.60000000000002,-0.0126020000000002
131.79999999999995,-0.0109290000000004
132.0,-0.0117790000000002
132.20000000000005,-0.0155550000000004
132.39999999999998,-0.0189320000000003
132.60000000000002,-0.0198880000000003
132.79999999999995,-0.0191400000000001
133.0,-0.0172000000000003
133.20000000000005,-0.0133180000000003
133.39999999999998,-0.0107600000000003
133.60000000000002,-0.0084560000000002
133.79999999999995,-0.007641
134.0,-0.0074420000000001
134.20000000000005,-0.0076270000000002
134.39999999999998,-0.0086490000000001
134.60000000000002,-0.0102310000000001
134.79999999999995,-0.0115350000000002
135.0,-0.013865
135.20000000000005,-0.015168
135.39999999999998,-0.0144840000000003
135.60000000000002,-0.0149890000000003
135.79999999999995,-0.0154279999999999
136.0,-0.0140280000000001
136.20000000000005,-0.0131320000000001
136.39999999999998,-0.012712
136.60000000000002,-0.01241
136.79999999999995,-0.0120710000000001
137.0,-0.0143190000000004
137.20000000000005,-0.0156680000000002
137.39999999999998,-0.0171990000000001
137.60000000000002,-0.0173230000000002
137.79999999999995,-0.0173780000000003
138.0,-0.01634
138.20000000000005,-0.0154180000000003
138.39999999999998,-0.0124760000000003
138.60000000000002,-0.0106110000000003
138.79999999999995,-0.00896
139.0,-0.0062190000000001
139.20000000000005,-0.0045960000000002
139.39999999999998,-0.0044690000000002
139.60000000000002,-0.006634
139.79999999999995,-0.0082220000000003
140.0,-0.008982
140.20000000000005,-0.0077550000000004
140.39999999999998,-0.0080840000000002
140.60000000000002,-0.0052800000000003
140.79999999999995,-0.0038220000000004
141.0,-0.0038770000000001
141.20000000000005,-0.0054010000000004
141.39999999999998,-0.0072180000000003
141.60000000000002,-0.0082930000000001
141.79999999999995,-0.009789
142.0,-0.010053
142.20000000000005,-0.010672
142.39999999999998,-0.009049
142.60000000000002,-0.0096030000000002
142.79999999999995,-0.0082050000000002
143.0,-0.0090850000000002
143.20000000000005,-0.010558
143.39999999999998,-0.0136380000000002
143.60000000000002,-0.0154930000000002
143.79999999999995,-0.0172590000000001
144.0,-0.0153320000000003
144.20000000000005,-0.0120680000000001
144.39999999999998,-0.0091210000000003
144.60000000000002,-0.0070200000000002
144.79999999999995,-0.0042910000000002
145.0,-0.0023620000000001
145.20000000000005,-0.0018450000000003
145.39999999999998,-0.0036200000000001
145.60000000000002,-0.0053850000000004
145.79999999999995,-0.0096470000000001
146.0,-0.0144330000000003
146.20000000000005,-0.018405
146.39999999999998,-0.018653
146.60000000000002,-0.0199580000000003
146.79999999999995,-0.020118
147.0,-0.0206370000000002
147.20000000000005,-0.0202380000000004
147.39999999999998,-0.0214770000000004
147.60000000000002,-0.0219470000000003
147.79999999999995,-0.0202430000000002
148.0,-0.0168080000000001
148.20000000000005,-0.0130590000000001
148.39999999999998,-0.009992
148.60000000000002,-0.007892
148.79999999999995,-0.0085650000000003
149.0,-0.0103720000000002
149.20000000000005,-0.0131940000000003
149.39999999999998,-0.0146220000000001
149.60000000000002,-0.016229
149.79999999999995,-0.0162880000000003
150.0,-0.0160980000000003
150.20000000000005,-0.0162690000000003
150.39999999999998,-0.0165640000000002
150.60000000000002,-0.0146160000000001
150.79999999999995,-0.0132890000000003
151.0,-0.0135130000000001
151.20000000000005,-0.0140600000000001
151.39999999999998,-0.015355
151.60000000000002,-0.0175900000000002
151.79999999999995,-0.02054
152.0,-0.0230010000000002
152.20000000000005,-0.024296
152.39999999999998,-0.022513
152.60000000000002,-0.0212190000000003
152.79999999999995,-0.0195200000000004
153.0,-0.0171390000000002
153.20000000000005,-0.015749
153.39999999999998,-0.0178670000000003
153.60000000000002,-0.0191350000000003
153.79999999999995,-0.0181840000000002
154.0,-0.0187700000000003
154.20000000000005,-0.0211750000000003
154.39999999999998,-0.0220260000000003
154.60000000000002,-0.0229150000000002
154.79999999999995,-0.023193
155.0,-0.0218160000000002
155.20000000000005,-0.0191850000000002
155.39999999999998,-0.0153780000000001
155.60000000000002,-0.0123320000000002
155.79999999999995,-0.011568
156.0,-0.0139060000000004
156.20000000000005,-0.0135550000000002
156.39999999999998,-0.0132410000000002
156.60000000000002,-0.0114840000000002
156.79999999999995,-0.0116340000000003
157.0,-0.0100760000000001
157.20000000000005,-0.0106360000000003
157.39999999999998,-0.0131390000000002
157.60000000000002,-0.0169040000000002
157.79999999999995,-0.018412
158.0,-0.0176360000000004
158.20000000000005,-0.0161760000000001
158.39999999999998,-0.0133290000000001
158.60000000000002,-0.0109310000000002
158.79999999999995,-0.0097880000000003
159.0,-0.0106010000000003
159.20000000000005,-0.012766
159.39999999999998,-0.0160180000000003
159.60000000000002,-0.0166480000000004
159.79999999999995,-0.0160820000000003
160.0,-0.0143430000000002
160.20000000000005,-0.0124460000000001
160.39999999999998,-0.0103910000000002
160.60000000000002,-0.0099200000000001
160.79999999999995,-0.0119330000000004
161.0,-0.0161860000000002
161.20000000000005,-0.01946
161.39999999999998,-0.0201890000000002
161.60000000000002,-0.021509
161.79999999999995,-0.0202500000000003
162.0,-0.0195190000000002
162.20000000000005,-0.019047
162.39999999999998,-0.0194390000000002
162.60000000000002,-0.0189970000000001
162.79999999999995,-0.020661
163.0,-0.019273
163.20000000000005,-0.0180740000000003
163.39999999999998,-0.0185330000000001
163.60000000000002,-0.0188320000000001
163.79999999999995,-0.016372
164.0,-0.0176130000000003
164.20000000000005,-0.0174380000000002
164.39999999999998,-0.0169540000000001
164.60000000000002,-0.015956
164.79999999999995,-0.0155830000000003
165.0,-0.0143900000000001
165.20000000000005,-0.014431
165.39999999999998,-0.0154400000000003
165.60000000000002,-0.0177650000000002
165.79999999999995,-0.0228830000000002
166.0,-0.0257370000000003
166.20000000000005,-0.0266440000000001
166.39999999999998,-0.025808
166.60000000000002,-0.0262670000000002
166.79999999999995,-0.022723
167.0,-0.0206210000000002
167.20000000000005,-0.0189780000000001
167.39999999999998,-0.01878
167.60000000000002,-0.0198
167.79999999999995,-0.0218450000000003
168.0,-0.023673
168.20000000000005,-0.0249180000000004
168.39999999999998,-0.0249290000000002
168.60000000000002,-0.02061
168.79999999999995,-0.017239
169.0,-0.0136790000000002
169.20000000000005,-0.0145710000000001
169.39999999999998,-0.016664
169.60000000000002,-0.0212940000000001
169.79999999999995,-0.0244590000000002
170.0,-0.0262790000000001
170.20000000000005,-0.0244530000000002
170.39999999999998,-0.0215280000000004
170.60000000000002,-0.0175120000000004
170.79999999999995,-0.0157060000000002
171.0,-0.0149470000000002
171.20000000000005,-0.0147340000000002
171.39999999999998,-0.01547
171.60000000000002,-0.0167890000000001
171.79999999999995,-0.0169220000000001
172.0,-0.0177120000000003
172.20000000000005,-0.0184670000000002
172.39999999999998,-0.017541
172.60000000000002,-0.0169520000000003
172.79999999999995,-0.0181680000000001
173.0,-0.0197670000000003
173.20000000000005,-0.020143
173.39999999999998,-0.022539
173.60000000000002,-0.0232290000000001
173.79999999999995,-0.0210700000000003
174.0,-0.0185220000000003
174.20000000000005,-0.0183600000000003
174.39999999999998,-0.0165610000000002
174.60000000000002,-0.01547
174.79999999999995,-0.0163170000000003
175.0,-0.0164240000000002
175.20000000000005,-0.0159100000000003
175.39999999999998,-0.0165430000000004
175.60000000000002,-0.0173550000000002
175.79999999999995,-0.017446
176.0,-0.0179580000000001
176.20000000000005,-0.0187820000000003
176.39999999999998,-0.019317
176.60000000000002,-0.0206510000000004
176.79999999999995,-0.021579
177.0,-0.0225080000000001
177.20000000000005,-0.0232430000000003
177.39999999999998,-0.0227160000000004
177.60000000000002,-0.0227410000000003
177.79999999999995,-0.0211200000000002
178.0,-0.0183210000000002
178.20000000000005,-0.0147880000000002
178.39999999999998,-0.0133320000000001
178.60000000000002,-0.0118750000000003
178.79999999999995,-0.0131730000000001
179.0,-0.0170240000000001
179.20000000000005,-0.0198820000000004
179.39999999999998,-0.0214050000000001
179.60000000000002,-0.0224070000000002
179.79999999999995,-0.0215010000000002
180.0,-0.0194930000000002
180.20000000000005,-0.0178960000000003
180.4,-0.0161350000000002
180.6,-0.0137180000000003
180.79999999999995,-0.01364
181.0,-0.014094
181.20000000000005,-0.0167510000000001
181.4,-0.0195600000000002
181.6,-0.0207170000000003
181.79999999999995,-0.0207670000000002
182.0,-0.019622
182.20000000000005,-0.017551
182.4,-0.016486
182.6,-0.0167510000000001
182.79999999999995,-0.0158060000000004
183.0,-0.0164150000000002
183.20000000000005,-0.016988
183.4,-0.01763
183.6,-0.0182190000000002
183.79999999999995,-0.0204530000000002
184.0,-0.0227940000000002
184.20000000000005,-0.0249720000000004
184.4,-0.0269650000000001
184.6,-0.0268000000000001
184.79999999999995,-0.0250650000000001
185.0,-0.0222610000000003
185.20000000000005,-0.0197950000000002
185.4,-0.0185190000000003
185.6,-0.0180420000000003
185.79999999999995,-0.0198260000000001
186.0,-0.020699
186.20000000000005,-0.0195670000000003
186.4,-0.0169730000000001
186.6,-0.0156100000000001
186.79999999999995,-0.0144580000000003
187.0,-0.0146490000000003
187.20000000000005,-0.0165680000000003
187.4,-0.0188700000000001
187.6,-0.0216630000000002
187.79999999999995,-0.0223270000000002
188.0,-0.0216610000000003
188.20000000000005,-0.020817
188.4,-0.0202630000000003
188.6,-0.0205240000000004
188.79999999999995,-0.023543
189.0,-0.0251450000000001
189.20000000000005,-0.0255230000000001
189.4,-0.0242620000000002
189.6,-0.0226050000000004
189.79999999999995,-0.0198270000000002
190.0,-0.0179150000000003
190.20000000000005,-0.017919
190.4,-0.0179800000000001
190.6,-0.0182820000000001
190.79999999999995,-0.0176060000000002
191.0,-0.019066
191.20000000000005,-0.0207520000000003
191.4,-0.019768
191.6,-0.0184090000000001
191.79999999999995,-0.0177560000000003
192.0,-0.0170600000000002
192.20000000000005,-0.0157500000000001
192.4,-0.0172940000000001
192.6,-0.018923
192.79999999999995,-0.0192050000000003
193.0,-0.0205710000000003
193.20000000000005,-0.022745
193.4,-0.024877
193.6,-0.0251450000000001
193.79999999999995,-0.0267660000000002
194.0,-0.0271270000000001
194.20000000000005,-0.0268620000000003
194.4,-0.0245140000000003
194.6,-0.0232490000000002
194.79999999999995,-0.022288
195.0,-0.0205540000000001
195.20000000000005,-0.0183840000000001
195.4,-0.019009
195.6,-0.021341
195.79999999999995,-0.0217770000000001
196.0,-0.0227890000000003
196.20000000000005,-0.0232130000000001
196.4,-0.023584
196.6,-0.0207600000000001
196.79999999999995,-0.0205920000000001
197.0,-0.01784
197.20000000000005,-0.0163390000000003
197.4,-0.0156050000000003
197.6,-0.0175810000000002
197.79999999999995,-0.018189
198.0,-0.0226410000000001
198.20000000000005,-0.0253430000000003
198.4,-0.0277290000000003
198.6,-0.0284570000000004
198.79999999999995,-0.0287230000000002
199.0,-0.0261430000000002
199.20000000000005,-0.0257840000000002
199.4,-0.0250400000000001
199.6,-0.0249610000000002
199.79999999999995,-0.0226600000000001
200.0,-0.022418
200.20000000000005,-0.023076
200.4,-0.0237660000000001
200.6,-0.0237340000000001
200.79999999999995,-0.0269810000000001
201.0,-0.0284090000000003
201.20000000000005,-0.026288
201.4,-0.0249800000000002
201.6,-0.024588
201.79999999999995,-0.0266360000000003
202.0,-0.0283650000000004
202.20000000000005,-0.0309680000000001
202.4,-0.032871
202.6,-0.0354500000000004
202.79999999999995,-0.0335050000000003
203.0,-0.03098
203.20000000000005,-0.0297460000000002
203.4,-0.0277660000000001
203.6,-0.0249620000000003
203.79999999999995,-0.0240080000000002
204.0,-0.0248690000000002
204.20000000000005,-0.0253510000000001
204.4,-0.026532
204.6,-0.028413
204.79999999999995,-0.0293500000000004
205.0,-0.0305490000000001
205.20000000000005,-0.03045
205.4,-0.0284060000000003
205.6,-0.0263910000000002
205.79999999999995,-0.0250830000000004
206.0,-0.0235670000000003
206.20000000000005,-0.0224260000000002
206.4,-0.023463
206.6,-0.0251170000000002
206.79999999999995,-0.0252640000000003
207.0,-0.0235450000000003
207.20000000000005,-0.0233940000000001
207.4,-0.0230830000000001
207.6,-0.0206890000000004
207.79999999999995,-0.018386
208.0,-0.0198200000000001
208.20000000000005,-0.021592
208.4,-0.022469
208.6,-0.023403
208.79999999999995,-0.0250650000000001
209.0,-0.024248
209.20000000000005,-0.02393
209.4,-0.0238120000000003
209.6,-0.0248250000000003
209.79999999999995,-0.0250340000000002
210.0,-0.0245810000000004
210.20000000000005,-0.0221440000000003
210.4,-0.0211530000000004
210.6,-0.0198500000000003
210.79999999999995,-0.0217360000000002
211.0,-0.0249410000000001
211.20000000000005,-0.027876
211.4,-0.029668
211.6,-0.0313910000000001
211.79999999999995,-0.0305020000000002
212.0,-0.0290820000000002
212.20000000000005,-0.027819
212.4,-0.0259210000000003
212.6,-0.0231420000000004
212.79999999999995,-0.0213330000000002
213.0,-0.0195040000000004
213.20000000000005,-0.019063
213.4,-0.0203470000000001
213.6,-0.0231610000000004
213.79999999999995,-0.0246910000000002
214.0,-0.0263910000000002
214.20000000000005,-0.0269020000000002
214.4,-0.0279290000000003
214.6,-0.028226
214.79999999999995,-0.0291680000000003
215.0,-0.0291580000000002
215.20000000000005,-0.030151
215.4,-0.0271400000000001
215.6,-0.024502
215.79999999999995,-0.0218860000000002
216.0,-0.0207390000000002
216.20000000000005,-0.0201840000000004
216.4,-0.02068
216.6,-0.0205810000000004
216.79999999999995,-0.019994
217.0,-0.018723
217.20000000000005,-0.0159220000000002
217.4,-0.016718
217.6,-0.0179680000000002
217.79999999999995,-0.0198200000000001
218.0,-0.021964
218.20000000000005,-0.0229890000000003
218.4,-0.0219340000000003
218.6,-0.0210110000000001
218.79999999999995,-0.0207330000000003
219.0,-0.0213900000000002
219.20000000000005,-0.022485
219.4,-0.0236
219.6,-0.0267530000000002
219.79999999999995,-0.028588
220.0,-0.0285430000000004
220.20000000000005,-0.0283650000000004
220.4,-0.0293890000000001
220.6,-0.028772
220.79999999999995,-0.0274910000000003
221.0,-0.026586
221.20000000000005,-0.0263550000000001
221.4,-0.025322
221.6,-0.0219590000000002
221.79999999999995,-0.0209320000000001
222.0,-0.0220680000000004
222.20000000000005,-0.022399
222.4,-0.0208120000000002
222.6,-0.0214380000000002
222.79999999999995,-0.0223050000000002
223.0,-0.0214720000000001
223.20000000000005,-0.0221870000000001
223.4,-0.0233670000000003
223.6,-0.0251190000000001
223.79999999999995,-0.0250280000000002
224.0,-0.0233320000000003
224.20000000000005,-0.0211770000000002
224.4,-0.020623
224.6,-0.019082
224.79999999999995,-0.0188590000000004
225.0,-0.0199760000000002
225.20000000000005,-0.0211300000000003
225.4,-0.0207290000000002
225.6,-0.019492
225.79999999999995,-0.0196620000000002
226.0,-0.0200610000000001
226.20000000000005,-0.0211330000000002
226.4,-0.0227340000000002
226.6,-0.0260070000000003
226.79999999999995,-0.0277170000000004
227.0,-0.028105
227.20000000000005,-0.0265240000000002
227.4,-0.0260520000000004
227.6,-0.0250860000000003
227.79999999999995,-0.0247750000000004
228.0,-0.0249130000000001
228.20000000000005,-0.0249910000000004
228.4,-0.0261490000000002
228.6,-0.027098
228.79999999999995,-0.0267120000000002
229.0,-0.0266550000000003
229.20000000000005,-0.0294760000000002
229.4,-0.0301250000000004
229.6,-0.0285510000000002
229.79999999999995,-0.0268360000000003
230.0,-0.0260170000000004
230.20000000000005,-0.0236750000000003
230.4,-0.0224190000000001
230.6,-0.024947
230.79999999999995,-0.027098
231.0,-0.0270510000000001
231.20000000000005,-0.0261070000000001
231.4,-0.0259470000000003
231.6,-0.0244400000000002
231.79999999999995,-0.0215330000000002
232.0,-0.0198590000000002
232.20000000000005,-0.0177630000000004
232.4,-0.0164030000000003
232.6,-0.015022
232.79999999999995,-0.0177100000000001
233.0,-0.0207490000000003
233.20000000000005,-0.0245270000000004
233.4,-0.0269970000000001
233.6,-0.0301390000000001
233.79999999999995,-0.0313670000000003
234.0,-0.0329890000000001
234.20000000000005,-0.0348550000000003
234.4,-0.0347140000000001
234.6,-0.0338830000000003
234.79999999999995,-0.0329390000000002
235.0,-0.032448
235.20000000000005,-0.0303590000000002
235.4,-0.0299150000000003
235.6,-0.028766
235.79999999999995,-0.0272140000000002
236.0,-0.025131
236.20000000000005,-0.0251930000000002
236.4,-0.0235280000000002
236.6,-0.022313
236.79999999999995,-0.0217990000000001
237.0,-0.022475
237.20000000000005,-0.0229440000000002
237.4,-0.024963
237.6,-0.027546
237.79999999999995,-0.0286530000000002
238.0,-0.0292780000000001
238.20000000000005,-0.0289060000000001
238.4,-0.0269780000000001
238.6,-0.02441
238.79999999999995,-0.0255960000000001
239.0,-0.0249540000000001
239.20000000000005,-0.0249000000000001
239.4,-0.0261850000000003
239.6,-0.0265220000000003
239.79999999999995,-0.0241840000000004
240.0,-0.0231070000000004
240.20000000000005,-0.0241290000000002
240.4,-0.0259620000000002
240.6,-0.029265
240.79999999999995,-0.0317700000000003
241.0,-0.0326460000000001
241.20000000000005,-0.0323160000000002
241.4,-0.0296190000000002
241.6,-0.0269190000000003
241.79999999999995,-0.0243840000000004
242.0,-0.0228070000000002
242.20000000000005,-0.0189180000000002
242.4,-0.0182610000000003
242.6,-0.0190350000000001
242.79999999999995,-0.01994
243.0,-0.0210080000000001
243.20000000000005,-0.0219560000000003
243.4,-0.0226900000000003
243.6,-0.0219210000000003
243.79999999999995,-0.0237930000000003
244.0,-0.0264460000000004
244.20000000000005,-0.029122
244.4,-0.030961
244.6,-0.0325650000000004
244.79999999999995,-0.031641
245.0,-0.029004
245.20000000000005,-0.027908
245.4,-0.0261330000000001
245.6,-0.0236310000000004
245.79999999999995,-0.0217050000000003
246.0,-0.0215680000000002
246.20000000000005,-0.0230680000000003
246.4,-0.0235450000000003
246.6,-0.024029
246.79999999999995,-0.0251970000000003
247.0,-0.0266030000000001
247.20000000000005,-0.0271030000000003
247.4,-0.0282950000000004
247.6,-0.0292850000000002
247.79999999999995,-0.0290490000000001
248.0,-0.0283270000000004
248.20000000000005,-0.0269030000000003
248.4,-0.026647
248.6,-0.0265850000000003
248.79999999999995,-0.0280590000000002
249.0,-0.0284930000000001
249.20000000000005,-0.0301330000000001
249.4,-0.0306600000000001
249.6,-0.0313190000000003
249.79999999999995,-0.0298020000000001
250.0,-0.0276260000000001
250.20000000000005,-0.0260160000000002
250.4,-0.026129
250.6,-0.0271700000000003
250.79999999999995,-0.02862
251.0,-0.0321440000000001
251.20000000000005,-0.0324720000000002
251.4,-0.03031
251.6,-0.0273760000000002
251.79999999999995,-0.0269120000000002
252.0,-0.0265940000000002
252.20000000000005,-0.0283740000000003
252.4,-0.0281500000000001
252.6,-0.0288400000000002
252.79999999999995,-0.0279380000000002
253.0,-0.0264640000000002
253.20000000000005,-0.0219660000000003
253.4,-0.0223520000000001
253.6,-0.021776
253.79999999999995,-0.0215640000000001
254.0,-0.0207860000000001
254.20000000000005,-0.0234800000000001
254.4,-0.0258150000000001
254.6,-0.0301020000000002
254.79999999999995,-0.0332370000000001
255.0,-0.0345280000000003
255.20000000000005,-0.0339
255.4,-0.0305710000000001
255.6,-0.0250190000000003
255.79999999999995,-0.0189880000000002
256.0,-0.017525
256.20000000000005,-0.017395
256.4,-0.0184200000000003
256.6,-0.0208760000000003
256.79999999999995,-0.0252800000000004
257.0,-0.0275340000000001
257.20000000000005,-0.02834
257.4,-0.0287800000000002
257.6,-0.027473
257.79999999999995,-0.026952
258.0,-0.0263750000000002
258.20000000000005,-0.02759
258.4,-0.0287710000000003
258.6,-0.0316430000000003
258.79999999999995,-0.0327620000000004
259.0,-0.0329840000000003
259.20000000000005,-0.0324850000000003
259.4,-0.0334400000000001
259.6,-0.0334040000000004
259.79999999999995,-0.0338040000000003
260.0,-0.0334080000000001
260.20000000000005,-0.0325950000000001
260.4,-0.0304900000000003
260.6,-0.0290760000000003
260.79999999999995,-0.0269140000000001
261.0,-0.0274830000000001
261.20000000000005,-0.0289870000000003
261.4,-0.0287790000000001
261.6,-0.0275560000000001
261.79999999999995,-0.0279260000000003
262.0,-0.0264980000000001
262.20000000000005,-0.0256960000000003
262.4,-0.0268230000000002
262.6,-0.0274940000000003
262.79999999999995,-0.0276370000000003
263.0,-0.0282040000000001
263.20000000000005,-0.0293720000000003
263.4,-0.029595
263.6,-0.0318120000000003
263.79999999999995,-0.031705
264.0,-0.0337750000000003
264.20000000000005,-0.0327770000000002
264.4,-0.0330250000000003
264.6,-0.0310220000000001
264.79999999999995,-0.0316480000000001
265.0,-0.0294880000000001
265.20000000000005,-0.03037
265.4,-0.0293110000000003
265.6,-0.0302000000000002
265.79999999999995,-0.03126
266.0,-0.0326360000000001
266.20000000000005,-0.032289
266.4,-0.0341400000000002
266.6,-0.035692
266.79999999999995,-0.0352480000000001
267.0,-0.0345280000000003
267.20000000000005,-0.0322120000000003
267.4,-0.0297520000000002
267.6,-0.028664
267.79999999999995,-0.0299750000000003
268.0,-0.031705
268.20000000000005,-0.0342670000000002
268.4,-0.0357880000000001
268.6,-0.0351490000000001
268.79999999999995,-0.032537
269.0,-0.030431
269.20000000000005,-0.0298350000000002
269.4,-0.029884
269.6,-0.029884
269.79999999999995,-0.0298450000000003
270.0,-0.0298869999999999
270.20000000000005,-0.0307670000000004
270.4,-0.0326720000000002
270.6,-0.0350650000000003
270.79999999999995,-0.0367050000000004
271.0,-0.0375750000000003
271.20000000000005,-0.0379340000000003
271.4,-0.03641
271.6,-0.0330280000000002
271.79999999999995,-0.0316660000000004
272.0,-0.0304130000000002
272.20000000000005,-0.0281710000000003
272.4,-0.0253510000000001
272.6,-0.024502
272.79999999999995,-0.0249510000000001
273.0,-0.0266160000000001
273.20000000000005,-0.0292560000000001
273.4,-0.0325860000000002
273.6,-0.0343940000000002
273.79999999999995,-0.0340660000000001
274.0,-0.0340120000000001
274.20000000000005,-0.0316770000000001
274.4,-0.028575
274.6,-0.0236940000000003
274.79999999999995,-0.020235
275.0,-0.0181440000000003
275.20000000000005,-0.018726
275.4,-0.0204910000000002
275.6,-0.0255510000000001
275.79999999999995,-0.0289220000000001
276.0,-0.0274860000000001
276.20000000000005,-0.0244000000000004
276.4,-0.0227110000000001
276.6,-0.022332
276.79999999999995,-0.0217460000000002
277.0,-0.024369
277.20000000000005,-0.0269570000000003
277.4,-0.027482
277.6,-0.0254570000000002
277.79999999999995,-0.0236300000000002
278.0,-0.0226710000000003
278.20000000000005,-0.0240330000000001
278.4,-0.0263870000000001
278.6,-0.0293580000000002
278.79999999999995,-0.0324920000000004
279.0,-0.0345330000000001
279.20000000000005,-0.0329950000000001
279.4,-0.0314720000000003
279.6,-0.0320360000000001
279.79999999999995,-0.0331130000000001
280.0,-0.0334510000000003
280.20000000000005,-0.0355210000000001
280.4,-0.036934
280.6,-0.0369140000000003
280.79999999999995,-0.0365440000000001
281.0,-0.034542
281.20000000000005,-0.0325540000000001
281.4,-0.0308130000000002
281.6,-0.0306860000000002
281.79999999999995,-0.0290560000000001
282.0,-0.0289130000000001
282.20000000000005,-0.0281640000000003
282.4,-0.0279180000000001
282.6,-0.0265000000000004
282.79999999999995,-0.0262680000000004
283.0,-0.026046
283.20000000000005,-0.0266600000000001
283.4,-0.0274550000000002
283.6,-0.027695
283.79999999999995,-0.0282950000000004
284.0,-0.0275090000000002
284.20000000000005,-0.0268970000000003
284.4,-0.0259630000000004
284.6,-0.0247970000000004
284.79999999999995,-0.0227630000000003
285.0,-0.0237950000000002
285.20000000000005,-0.0246750000000002
285.4,-0.0264920000000001
285.6,-0.028756
285.79999999999995,-0.031285
286.0,-0.0326120000000003
286.20000000000005,-0.031949
286.4,-0.0301140000000001
286.6,-0.028518
286.79999999999995,-0.0287450000000002
287.0,-0.0289210000000004
287.20000000000005,-0.0297500000000003
287.4,-0.0313020000000001
287.6,-0.0316040000000001
287.79999999999995,-0.029932
288.0,-0.027568
288.20000000000005,-0.0283450000000002
288.4,-0.0277790000000002
288.6,-0.0282580000000001
288.79999999999995,-0.0289360000000002
289.0,-0.0303530000000002
289.20000000000005,-0.029741
289.4,-0.0304970000000004
289.6,-0.0320410000000004
289.79999999999995,-0.0342280000000001
290.0,-0.03499
290.20000000000005,-0.0351100000000004
290.4,-0.0345120000000003
290.6,-0.0331370000000004
290.79999999999995,-0.0321130000000002
291.0,-0.0333530000000004
291.20000000000005,-0.034872
291.4,-0.0342440000000001
291.6,-0.0332880000000002
291.79999999999995,-0.0334570000000002
292.0,-0.0321580000000003
292.20000000000005,-0.0307600000000003
292.4,-0.0305500000000003
292.6,-0.0297450000000001
292.79999999999995,-0.027975
293.0,-0.0268750000000004
293.20000000000005,-0.0252380000000003
293.4,-0.0248950000000003
293.6,-0.0249420000000002
293.79999999999995,-0.0265150000000002
294.0,-0.028585
294.20000000000005,-0.0306230000000002
294.4,-0.031565
294.6,-0.031231
294.79999999999995,-0.0288000000000003
295.0,-0.0256770000000003
295.20000000000005,-0.0244410000000003
295.4,-0.0247750000000004
295.6,-0.025563
295.79999999999995,-0.0290640000000004
296.0,-0.0324430000000002
296.20000000000005,-0.035241
296.4,-0.037293
296.6,-0.0407790000000001
296.79999999999995,-0.0400360000000001
296.9999999999999,-0.0415850000000002
297.19999999999993,-0.0455070000000001
297.4,-0.0472110000000001
297.5999999999999,-0.0488600000000001
297.79999999999995,-0.0492010000000002
297.9999999999999,-0.0508220000000001
298.19999999999993,-0.0496450000000001
298.4,-0.0482480000000002
298.5999999999999,-0.0460660000000001
298.79999999999995,-0.046847
298.9999999999999,-0.0465460000000002
299.19999999999993,-0.0461660000000001
299.4,-0.0459350000000002
299.5999999999999,-0.0452700000000001
299.79999999999995,-0.0449160000000001
299.9999999999999,-0.044229
300.19999999999993,-0.0443310000000001
300.4,-0.0455140000000002
300.5999999999999,-0.047357
300.79999999999995,-0.0460330000000002
300.9999999999999,-0.0441760000000002
301.19999999999993,-0.0444030000000001
301.4,-0.0432030000000001
301.5999999999999,-0.0423360000000001
301.79999999999995,-0.0434130000000001
301.9999999999999,-0.04604
302.19999999999993,-0.0470930000000002
302.4,-0.0482080000000002
302.5999999999999,-0.0470070000000002
302.79999999999995,-0.0445950000000001
302.9999999999999,-0.0416850000000001
303.19999999999993,-0.0403740000000001
303.4,-0.0409540000000001
303.5999999999999,-0.0437070000000001
303.79999999999995,-0.0486680000000001
303.9999999999999,-0.0527350000000002
304.19999999999993,-0.0539980000000002
304.4,-0.05397
304.5999999999999,-0.0547700000000002
304.79999999999995,-0.0547870000000001
304.9999999999999,-0.0546120000000001
305.19999999999993,-0.0550840000000001
305.4,-0.0560090000000002
305.5999999999999,-0.0531460000000001
305.79999999999995,-0.0510190000000001
305.9999999999999,-0.0493020000000001
306.19999999999993,-0.0490480000000002
306.4,-0.0485120000000001
306.5999999999999,-0.0519610000000001
306.79999999999995,-0.0523280000000001
306.9999999999999,-0.0533420000000002
307.19999999999993,-0.0535040000000002
307.4,-0.0548430000000002
307.5999999999999,-0.0531120000000002
307.79999999999995,-0.0511550000000002
307.9999999999999,-0.0472220000000001
308.19999999999993,-0.0434690000000002
308.4,-0.0402510000000002
308.5999999999999,-0.0380910000000001
308.79999999999995,-0.0378880000000001
308.9999999999999,-0.038558
309.19999999999993,-0.0397590000000001
309.4,-0.0408710000000001
309.5999999999999,-0.0420580000000001
309.79999999999995,-0.044631
309.9999999999999,-0.0485350000000002
310.19999999999993,-0.0532200000000002
310.4,-0.0547780000000002
310.5999999999999,-0.0570530000000002
310.79999999999995,-0.0573120000000002
310.9999999999999,-0.0562500000000001
311.19999999999993,-0.0543780000000002
311.4,-0.0528330000000001
311.5999999999999,-0.0503650000000002
311.79999999999995,-0.0480870000000002
311.9999999999999,-0.0466950000000001
312.19999999999993,-0.0448650000000001
312.4,-0.0453910000000001
312.5999999999999,-0.0469160000000001
312.79999999999995,-0.0483220000000002
312.9999999999999,-0.0471680000000001
313.19999999999993,-0.0451910000000002
313.4,-0.0435290000000001
313.5999999999999,-0.0411020000000001
313.79999999999995,-0.0399280000000001
313.9999999999999,-0.0416010000000002
314.19999999999993,-0.0446750000000002
314.4,-0.045295
314.5999999999999,-0.0460980000000001
314.79999999999995,-0.0468940000000002
314.9999999999999,-0.0479470000000001
315.19999999999993,-0.0460260000000001
315.4,-0.0460910000000001
315.5999999999999,-0.0480410000000002
315.79999999999995,-0.049152
315.9999999999999,-0.0495580000000002
316.19999999999993,-0.0527160000000002
316.4,-0.0551380000000001
316.5999999999999,-0.0546730000000001
316.79999999999995,-0.0542150000000001
316.9999999999999,-0.0521740000000001
317.19999999999993,-0.0489370000000002
317.4,-0.044623
317.5999999999999,-0.0445720000000002
317.79999999999995,-0.0444750000000002
317.9999999999999,-0.0464990000000002
318.19999999999993,-0.0478450000000001
318.4,-0.048542
318.5999999999999,-0.0460410000000002
318.79999999999995,-0.0432000000000001
318.9999999999999,-0.0410190000000001
319.19999999999993,-0.0405480000000002
319.4,-0.0422650000000002
319.5999999999999,-0.0449530000000002
319.79999999999995,-0.0493260000000002
319.9999999999999,-0.0511900000000002
320.19999999999993,-0.0522220000000002
320.4,-0.0544620000000002
320.5999999999999,-0.0542840000000002
320.79999999999995,-0.052086
320.9999999999999,-0.0503170000000001
321.19999999999993,-0.0505030000000001
321.4,-0.0484520000000001
321.5999999999999,-0.0472650000000001
321.79999999999995,-0.0484400000000002
321.9999999999999,-0.0498630000000002
322.19999999999993,-0.048588
322.4,-0.0455290000000001
322.5999999999999,-0.0443600000000001
322.79999999999995,-0.0423600000000001
322.9999999999999,-0.041133
323.19999999999993,-0.0404590000000002
323.4,-0.0422210000000002
323.5999999999999,-0.042542
323.79999999999995,-0.0431960000000002
323.9999999999999,-0.0421460000000002
324.19999999999993,-0.0438680000000002
324.4,-0.0443680000000001
324.5999999999999,-0.0479430000000002
324.79999999999995,-0.0494970000000001
324.9999999999999,-0.0513170000000002
325.19999999999993,-0.0502220000000002
325.4,-0.0519340000000001
325.5999999999999,-0.0503540000000002
325.79999999999995,-0.050882
325.9999999999999,-0.0515210000000001
326.19999999999993,-0.0525450000000002
326.4,-0.0519030000000002
326.5999999999999,-0.0536340000000001
326.79999999999995,-0.0538740000000002
326.9999999999999,-0.0544750000000002
327.19999999999993,-0.0547690000000002
327.4,-0.0538120000000001
327.5999999999999,-0.0514880000000002
327.79999999999995,-0.0500290000000001
327.9999999999999,-0.0487080000000001
328.19999999999993,-0.0479340000000001
328.4,-0.0491210000000001
328.5999999999999,-0.0503950000000001
328.79999999999995,-0.0516470000000002
328.9999999999999,-0.0530570000000001
329.19999999999993,-0.0548280000000001
329.4,-0.0548270000000001
329.5999999999999,-0.0535890000000001
329.79999999999995,-0.0518380000000002
329.9999999999999,-0.0493630000000002
330.19999999999993,-0.0481470000000001
330.4,-0.0469430000000001
330.5999999999999,-0.0483000000000002
330.79999999999995,-0.0491550000000002
330.9999999999999,-0.0519500000000001
331.19999999999993,-0.0532880000000002
331.4,-0.0532030000000001
331.5999999999999,-0.0535980000000002
331.79999999999995,-0.0530390000000002
331.9999999999999,-0.0525350000000002
332.19999999999993,-0.0531370000000002
332.4,-0.0563140000000002
332.5999999999999,-0.0585540000000002
332.79999999999995,-0.060248
332.9999999999999,-0.0607540000000002
333.19999999999993,-0.059584
333.4,-0.0596530000000001
333.5999999999999,-0.056553
333.79999999999995,-0.0553340000000002
333.9999999999999,-0.0527050000000002
334.19999999999993,-0.0501450000000001
334.4,-0.0464780000000002
334.5999999999999,-0.0462000000000002
334.79999999999995,-0.0467130000000002
334.9999999999999,-0.0482870000000001
335.19999999999993,-0.0493320000000001
335.4,-0.0500330000000002
335.5999999999999,-0.0501220000000002
335.79999999999995,-0.0497850000000001
335.9999999999999,-0.0487440000000001
336.19999999999993,-0.0497580000000001
336.4,-0.0521160000000002
336.5999999999999,-0.054515
336.79999999999995,-0.0560450000000001
336.9999999999999,-0.0580580000000001
337.19999999999993,-0.0590570000000001
337.4,-0.0569590000000002
337.5999999999999,-0.0545510000000002
337.79999999999995,-0.053654
337.9999999999999,-0.0528280000000001
338.19999999999993,-0.052229
338.4,-0.053565
338.5999999999999,-0.053789
338.79999999999995,-0.0518290000000001
338.9999999999999,-0.0517300000000002
339.19999999999993,-0.0526080000000002
339.4,-0.0540120000000001
339.5999999999999,-0.0553360000000002
339.79999999999995,-0.0574790000000002
339.9999999999999,-0.0565550000000001
340.19999999999993,-0.0547250000000001
340.4,-0.052569
340.5999999999999,-0.0524060000000001
340.79999999999995,-0.0511760000000001
340.9999999999999,-0.0509860000000002
341.19999999999993,-0.0509440000000001
341.4,-0.0508460000000001
341.5999999999999,-0.0491380000000001
341.79999999999995,-0.0474640000000001
341.9999999999999,-0.0457200000000002
342.19999999999993,-0.044704
342.4,-0.0447280000000001
342.5999999999999,-0.0459580000000001
342.79999999999995,-0.0485430000000002
342.9999999999999,-0.0508780000000002
343.19999999999993,-0.0523930000000001
343.4,-0.0550930000000002
343.5999999999999,-0.0559730000000002
343.79999999999995,-0.0572200000000002
343.9999999999999,-0.0589810000000001
344.19999999999993,-0.0599270000000002
344.4,-0.0568970000000002
344.5999999999999,-0.0536550000000002
344.79999999999995,-0.0515200000000002
344.9999999999999,-0.0502440000000001
345.19999999999993,-0.0484480000000002
345.4,-0.0494480000000001
345.5999999999999,-0.0520850000000001
345.79999999999995,-0.0528640000000002
345.9999999999999,-0.0538670000000001
346.19999999999993,-0.0559820000000002
346.4,-0.056866
346.5999999999999,-0.055511
346.79999999999995,-0.0561030000000002
346.9999999999999,-0.0556750000000001
347.19999999999993,-0.0547140000000001
347.4,-0.0528700000000001
347.5999999999999,-0.05309
347.79999999999995,-0.054183
347.9999999999999,-0.0536570000000002
348.19999999999993,-0.0515170000000002
348.4,-0.0483080000000002
348.5999999999999,-0.0460740000000001
348.79999999999995,-0.0421710000000001
348.9999999999999,-0.0431230000000002
349.19999999999993,-0.0469210000000002
349.4,-0.0514940000000001
349.5999999999999,-0.0539490000000002
349.79999999999995,-0.0574990000000001
349.9999999999999,-0.0586750000000002
350.19999999999993,-0.0577970000000001
350.4,-0.0582530000000001
350.5999999999999,-0.0581880000000001
350.79999999999995,-0.056302
350.9999999999999,-0.0546290000000002
351.19999999999993,-0.0545480000000002
351.4,-0.0556670000000001
351.5999999999999,-0.0580650000000002
351.79999999999995,-0.0602940000000002
351.9999999999999,-0.0595670000000001
352.19999999999993,-0.0580360000000002
352.4,-0.0536580000000002
352.5999999999999,-0.0501880000000001
352.79999999999995,-0.0464090000000001
352.9999999999999,-0.0455700000000001
353.19999999999993,-0.0450990000000002
353.4,-0.0489950000000001
353.5999999999999,-0.0521050000000002
353.79999999999995,-0.0562440000000001
353.9999999999999,-0.0572750000000001
354.19999999999993,-0.056947
354.4,-0.0530390000000002
354.5999999999999,-0.050245
354.79999999999995,-0.0469340000000002
354.9999999999999,-0.0465750000000002
355.19999999999993,-0.0465460000000002
355.4,-0.0472830000000001
355.5999999999999,-0.0481170000000001
355.79999999999995,-0.0490260000000002
355.9999999999999,-0.0493690000000002
356.19999999999993,-0.051055
356.4,-0.0517900000000002
356.5999999999999,-0.0525050000000002
356.79999999999995,-0.0538130000000001
356.9999999999999,-0.05526
357.19999999999993,-0.0570490000000001
357.4,-0.059962
357.5999999999999,-0.058947
357.79999999999995,-0.0573660000000002
357.9999999999999,-0.0559120000000001
358.19999999999993,-0.0553420000000002
358.4,-0.0545970000000002
358.5999999999999,-0.0559060000000002
358.79999999999995,-0.0570110000000001
358.9999999999999,-0.0550150000000002
359.19999999999993,-0.0514780000000001
359.4,-0.0481870000000002
359.5999999999999,-0.049028
359.79999999999995,-0.0505560000000002
359.9999999999999,-0.0547290000000002
360.19999999999993,-0.0580700000000002
360.4,-0.0596410000000002
360.5999999999999,-0.0562840000000002
360.8,-0.0529640000000002
360.9999999999999,-0.0522590000000002
361.19999999999993,-0.0521580000000001
361.4,-0.0528620000000001
361.5999999999999,-0.0549140000000001
361.8,-0.0552340000000002
361.9999999999999,-0.0539080000000002
362.19999999999993,-0.0533340000000002
362.4,-0.0524760000000001
362.5999999999999,-0.051144
362.8,-0.052013
362.9999999999999,-0.0521760000000002
363.19999999999993,-0.0518770000000001
363.4,-0.0517630000000002
363.5999999999999,-0.0513110000000001
363.8,-0.051411
363.9999999999999,-0.0524010000000001
364.19999999999993,-0.0533300000000001
364.4,-0.0533460000000001
364.5999999999999,-0.0548790000000001
364.8,-0.0552400000000001
364.9999999999999,-0.055063
365.19999999999993,-0.0555210000000001
365.4,-0.0567340000000002
365.5999999999999,-0.0572850000000002
365.8,-0.0581700000000002
365.9999999999999,-0.0582720000000001
366.19999999999993,-0.0571950000000001
366.4,-0.0559840000000002
366.5999999999999,-0.0554770000000002
366.8,-0.0539740000000001
366.9999999999999,-0.051959
367.19999999999993,-0.0505310000000001
367.4,-0.0493000000000001
367.5999999999999,-0.0471030000000001
367.8,-0.0467680000000001
367.9999999999999,-0.0470480000000002
368.19999999999993,-0.048218
368.4,-0.0505090000000001
368.5999999999999,-0.0552070000000002
368.8,-0.0558120000000001
368.9999999999999,-0.055959
369.19999999999993,-0.0550570000000001
369.4,-0.0523080000000002
369.5999999999999,-0.0484920000000002
369.8,-0.0473530000000002
369.9999999999999,-0.046947
370.19999999999993,-0.047565
370.4,-0.0486050000000002
370.5999999999999,-0.0495160000000001
370.8,-0.0502360000000001
370.9999999999999,-0.051395
371.19999999999993,-0.0519170000000002
371.4,-0.0526650000000001
371.5999999999999,-0.0536510000000001
371.8,-0.0543780000000002
371.9999999999999,-0.0550500000000002
372.19999999999993,-0.0545860000000002
372.4,-0.0537200000000002
372.5999999999999,-0.0531200000000002
372.8,-0.053395
372.9999999999999,-0.0535630000000002
373.19999999999993,-0.0553990000000002
373.4,-0.0581890000000002
373.5999999999999,-0.0592650000000001
373.8,-0.0580890000000002
373.9999999999999,-0.0578590000000001
374.19999999999993,-0.0572910000000002
374.4,-0.0572670000000001
374.5999999999999,-0.0582280000000001
374.8,-0.0598380000000002
374.9999999999999,-0.0578910000000001
375.19999999999993,-0.0555740000000002
375.4,-0.0540070000000001
375.5999999999999,-0.0532800000000002
375.8,-0.054229
375.9999999999999,-0.0578390000000001
376.19999999999993,-0.0610800000000002
376.4,-0.0619490000000002
376.5999999999999,-0.0584750000000002
376.8,-0.0555680000000002
376.9999999999999,-0.0521970000000002
377.19999999999993,-0.048974
377.4,-0.0469380000000001
377.5999999999999,-0.0474960000000002
377.8,-0.0474020000000001
377.9999999999999,-0.048191
378.19999999999993,-0.0494990000000001
378.4,-0.0505760000000001
378.5999999999999,-0.0535960000000002
378.8,-0.0562930000000001
378.9999999999999,-0.05736
379.19999999999993,-0.0570210000000002
379.4,-0.056704
379.5999999999999,-0.0550910000000002
379.8,-0.0525700000000002
379.9999999999999,-0.0516090000000002
380.19999999999993,-0.0521440000000001
380.4,-0.0527760000000001
380.5999999999999,-0.0540230000000001
380.8,-0.0559810000000002
380.9999999999999,-0.0569480000000002
381.19999999999993,-0.0589300000000001
381.4,-0.059565
381.5999999999999,-0.0593070000000002
381.8,-0.0579420000000001
381.9999999999999,-0.0579580000000001
382.19999999999993,-0.0573480000000001
382.4,-0.0561310000000001
382.5999999999999,-0.054569
382.8,-0.0540270000000002
382.9999999999999,-0.0534210000000001
383.19999999999993,-0.0528860000000002
383.4,-0.0549080000000001
383.5999999999999,-0.0573710000000002
383.8,-0.0598690000000001
383.9999999999999,-0.0612030000000001
384.19999999999993,-0.0606370000000002
384.4,-0.0597010000000002
384.5999999999999,-0.0591780000000001
384.8,-0.056283
384.9999999999999,-0.0541230000000001
385.19999999999993,-0.0525750000000002
385.4,-0.0526970000000002
385.5999999999999,-0.0507130000000002
385.8,-0.0532750000000001
385.9999999999999,-0.0541910000000001
386.19999999999993,-0.0567410000000001
386.4,-0.0572180000000002
386.5999999999999,-0.0591950000000001
386.8,-0.0589220000000001
386.9999999999999,-0.0604680000000001
387.19999999999993,-0.0605780000000002
387.4,-0.0611570000000001
387.5999999999999,-0.060974
387.8,-0.0600290000000001
387.9999999999999,-0.0587730000000001
388.19999999999993,-0.0571020000000002
388.4,-0.0563360000000001
388.5999999999999,-0.0557030000000002
388.8,-0.0557160000000001
388.9999999999999,-0.057171
389.19999999999993,-0.0605410000000001
389.4,-0.0641690000000001
389.5999999999999,-0.0664510000000002
389.8,-0.0672380000000001
389.9999999999999,-0.0639030000000002
390.19999999999993,-0.0617130000000001
390.4,-0.0588140000000001
390.5999999999999,-0.0574770000000002
390.8,-0.0579740000000001
390.9999999999999,-0.0593660000000002
391.19999999999993,-0.0598530000000001
391.4,-0.0600080000000002
391.5999999999999,-0.061233
391.8,-0.0625130000000002
391.9999999999999,-0.0647300000000001
392.19999999999993,-0.0659070000000001
392.4,-0.0664470000000001
392.5999999999999,-0.0643890000000002
392.8,-0.062518
392.9999999999999,-0.0611130000000001
393.19999999999993,-0.0590430000000001
393.4,-0.0571160000000001
393.5999999999999,-0.0575740000000002
393.8,-0.0584830000000002
393.9999999999999,-0.0600580000000001
394.19999999999993,-0.0599410000000002
394.4,-0.0590110000000001
394.5999999999999,-0.0595610000000002
394.8,-0.0599070000000001
394.9999999999999,-0.0588220000000001
395.19999999999993,-0.059665
395.4,-0.0605870000000001
395.5999999999999,-0.058758
395.8,-0.0561960000000001
395.9999999999999,-0.0558630000000002
396.19999999999993,-0.0565080000000002
396.4,-0.0579740000000001
396.5999999999999,-0.0602050000000002
396.8,-0.0616880000000001
396.9999999999999,-0.0630980000000001
397.19999999999993,-0.0620110000000002
397.4,-0.0600530000000001
397.5999999999999,-0.0573800000000002
397.8,-0.0573650000000001
397.9999999999999,-0.0570060000000001
398.19999999999993,-0.0592950000000001
398.4,-0.0619980000000002
398.5999999999999,-0.0660350000000002
398.8,-0.0679230000000001
398.9999999999999,-0.0686900000000001
399.19999999999993,-0.0678310000000002
399.4,-0.06519
399.5999999999999,-0.06082
399.8,-0.057136
399.9999999999999,-0.0575310000000002
400.19999999999993,-0.060588
400.4,-0.0636890000000001
400.5999999999999,-0.0678490000000002
400.8,-0.070537
400.9999999999999,-0.0691680000000001
401.19999999999993,-0.0656970000000001
401.4,-0.0645140000000001
401.5999999999999,-0.0630610000000002
401.8,-0.0629690000000002
401.9999999999999,-0.061611
402.19999999999993,-0.0602010000000001
402.4,-0.0582810000000002
402.5999999999999,-0.0579800000000001
402.8,-0.0582850000000001
402.9999999999999,-0.0589430000000001
403.19999999999993,-0.0612510000000001
403.4,-0.064839
403.5999999999999,-0.0657790000000002
403.8,-0.0660600000000002
403.9999999999999,-0.0665740000000001
404.19999999999993,-0.0648860000000002
404.4,-0.0597840000000002
404.5999999999999,-0.0577210000000001
404.8,-0.0578680000000002
404.9999999999999,-0.0595270000000001
405.19999999999993,-0.0617060000000002
405.4,-0.0659770000000001
405.5999999999999,-0.068167
405.8,-0.0689080000000001
405.9999999999999,-0.0684510000000002
406.19999999999993,-0.0665020000000002
406.4,-0.0655000000000001
406.5999999999999,-0.0650250000000001
406.8,-0.0635350000000001
406.9999999999999,-0.0640960000000001
407.19999999999993,-0.0660600000000002
407.4,-0.0675630000000002
407.5999999999999,-0.0675660000000002
407.8,-0.0657
407.9999999999999,-0.0616500000000002
408.19999999999993,-0.0578200000000002
408.4,-0.0555960000000002
408.5999999999999,-0.05353
408.8,-0.0540640000000001
408.9999999999999,-0.0571830000000002
409.19999999999993,-0.0615000000000001
409.4,-0.0646980000000001
409.5999999999999,-0.0682140000000002
409.8,-0.0695720000000001
409.9999999999999,-0.0699020000000001
410.19999999999993,-0.066429
410.4,-0.0613040000000002
410.5999999999999,-0.0568060000000001
410.8,-0.0569160000000001
410.9999999999999,-0.0553300000000001
411.19999999999993,-0.0543300000000002
411.4,-0.052963
411.5999999999999,-0.0539620000000002
411.8,-0.0523500000000001
411.9999999999999,-0.0522530000000001
412.19999999999993,-0.0527890000000002
412.4,-0.0563620000000002
412.5999999999999,-0.0585370000000002
412.8,-0.0613740000000002
412.9999999999999,-0.0633220000000001
413.19999999999993,-0.0659100000000001
413.4,-0.0664470000000001
413.5999999999999,-0.0653420000000002
413.8,-0.0639100000000001
413.9999999999999,-0.063117
414.19999999999993,-0.0635850000000002
414.4,-0.0630780000000001
414.5999999999999,-0.0629000000000001
414.8,-0.062283
414.9999999999999,-0.0613910000000001
415.19999999999993,-0.0610640000000002
415.4,-0.0622780000000002
415.5999999999999,-0.0640070000000001
415.8,-0.0641720000000001
415.9999999999999,-0.0637570000000002
416.19999999999993,-0.0630170000000001
416.4,-0.0622520000000001
416.5999999999999,-0.0627530000000002
416.8,-0.0643060000000002
416.9999999999999,-0.0661870000000002
417.19999999999993,-0.066561
417.4,-0.0668700000000002
417.5999999999999,-0.0662060000000002
417.8,-0.065055
417.9999999999999,-0.0643680000000002
418.19999999999993,-0.0647410000000001
418.4,-0.0638570000000002
418.5999999999999,-0.0623810000000002
418.8,-0.0614130000000001
418.9999999999999,-0.0596910000000001
419.19999999999993,-0.0573290000000001
419.4,-0.056113
419.5999999999999,-0.0570780000000001
419.8,-0.0591140000000001
419.9999999999999,-0.0614560000000001
420.19999999999993,-0.0638790000000002
420.4,-0.0660490000000002
420.5999999999999,-0.06692
420.8,-0.0671030000000001
420.9999999999999,-0.0664870000000001
421.19999999999993,-0.0681470000000001
421.4,-0.0695430000000001
421.5999999999999,-0.069684
421.8,-0.0688360000000001
421.9999999999999,-0.0702420000000001
422.19999999999993,-0.0686460000000002
422.4,-0.0658820000000002
422.5999999999999,-0.0635620000000001
422.8,-0.0619600000000002
422.9999999999999,-0.06092
423.19999999999993,-0.0619210000000001
423.4,-0.0637580000000002
423.5999999999999,-0.0637120000000002
423.8,-0.0642350000000002
423.9999999999999,-0.0637390000000002
424.19999999999993,-0.0630750000000002
424.4,-0.0632260000000002
424.5999999999999,-0.0636740000000002
424.8,-0.0645960000000001
424.9999999999999,-0.0647390000000001
425.19999999999993,-0.0653340000000002
425.4,-0.0651450000000002
425.5999999999999,-0.0670920000000001
425.8,-0.0655040000000002
425.9999999999999,-0.0629480000000002
426.19999999999993,-0.059468
426.4,-0.0568060000000001
426.5999999999999,-0.0545540000000002
426.8,-0.0545640000000002
426.9999999999999,-0.0547680000000001
427.19999999999993,-0.0544600000000001
427.4,-0.0551990000000002
427.5999999999999,-0.056777
427.8,-0.0600420000000001
427.9999999999999,-0.0633370000000002
428.19999999999993,-0.0653000000000001
428.4,-0.065603
428.5999999999999,-0.0661550000000001
428.8,-0.0650170000000001
428.9999999999999,-0.0647740000000001
429.19999999999993,-0.0647980000000001
429.4,-0.0654480000000001
429.5999999999999,-0.0640770000000001
429.8,-0.0641240000000002
429.9999999999999,-0.065549
430.19999999999993,-0.0660560000000001
430.4,-0.0651930000000002
430.5999999999999,-0.0637750000000001
430.8,-0.0627610000000002
430.9999999999999,-0.0612110000000001
431.19999999999993,-0.0624660000000001
431.4,-0.0643780000000002
431.5999999999999,-0.0662260000000001
431.8,-0.0672690000000002
431.9999999999999,-0.0652600000000001
432.19999999999993,-0.0642660000000001
432.4,-0.0633460000000001
432.5999999999999,-0.0643280000000001
432.8,-0.0624480000000002
432.9999999999999,-0.063638
433.19999999999993,-0.0620620000000002
433.4,-0.0618290000000001
433.5999999999999,-0.0608520000000001
433.8,-0.0619900000000002
433.9999999999999,-0.0622060000000002
434.19999999999993,-0.0634150000000002
434.4,-0.0635410000000002
434.5999999999999,-0.0646890000000002
434.8,-0.0672000000000001
434.9999999999999,-0.0684220000000002
435.19999999999993,-0.0673820000000002
435.4,-0.0651780000000001
435.5999999999999,-0.0629820000000001
435.8,-0.0600070000000001
435.9999999999999,-0.0575740000000002
436.19999999999993,-0.0566750000000002
436.4,-0.0581680000000002
436.5999999999999,-0.0586550000000001
436.8,-0.0601970000000002
436.9999999999999,-0.0614890000000001
437.19999999999993,-0.06407
437.4,-0.0664430000000002
437.5999999999999,-0.0679690000000001
437.8,-0.0674970000000001
437.9999999999999,-0.0669920000000001
438.19999999999993,-0.0666570000000001
438.4,-0.0658910000000001
438.5999999999999,-0.0682860000000002
438.8,-0.0700290000000001
438.9999999999999,-0.0725770000000001
439.19999999999993,-0.0724500000000001
439.4,-0.0725230000000001
439.5999999999999,-0.0685400000000002
439.8,-0.0665760000000001
439.9999999999999,-0.0655640000000001
440.19999999999993,-0.0666130000000002
440.4,-0.0664150000000001
440.5999999999999,-0.0665360000000001
440.8,-0.0656170000000002
440.9999999999999,-0.0650070000000002
441.19999999999993,-0.0637510000000001
441.4,-0.0636070000000001
441.5999999999999,-0.0643350000000002
441.8,-0.0645480000000002
441.9999999999999,-0.0639260000000001
442.19999999999993,-0.0645230000000001
442.4,-0.0657310000000002
442.5999999999999,-0.066761
442.8,-0.0690020000000002
442.9999999999999,-0.0713220000000001
443.19999999999993,-0.0713750000000001
443.4,-0.0700810000000002
443.5999999999999,-0.0691730000000001
443.8,-0.0671160000000001
443.9999999999999,-0.0657140000000002
444.19999999999993,-0.0667800000000002
444.4,-0.0693690000000002
444.5999999999999,-0.0711430000000001
444.8,-0.0718250000000002
444.9999999999999,-0.0722110000000002
445.19999999999993,-0.0705270000000002
445.4,-0.0689840000000001
445.5999999999999,-0.0663460000000002
445.8,-0.065476
445.9999999999999,-0.0623730000000002
446.19999999999993,-0.0606220000000001
446.4,-0.0578470000000002
446.5999999999999,-0.0581100000000001
446.8,-0.0587380000000001
446.9999999999999,-0.0593190000000001
447.19999999999993,-0.061136
447.4,-0.0633360000000002
447.5999999999999,-0.0625520000000001
447.8,-0.0623840000000002
447.9999999999999,-0.0651190000000001
448.19999999999993,-0.0677330000000002
448.4,-0.070113
448.5999999999999,-0.0724330000000001
448.8,-0.0730150000000002
448.9999999999999,-0.0733040000000002
449.19999999999993,-0.0729510000000002
449.4,-0.0712480000000002
449.5999999999999,-0.0708090000000001
449.8,-0.0690160000000001
449.9999999999999,-0.0682110000000002
450.19999999999993,-0.065271
450.4,-0.0632240000000001
450.5999999999999,-0.0610560000000002
450.8,-0.0633440000000002
450.9999999999999,-0.0634470000000002
451.19999999999993,-0.0655880000000002
451.4,-0.0682220000000002
451.5999999999999,-0.0716870000000002
451.8,-0.0716070000000002
451.9999999999999,-0.0690910000000002
452.19999999999993,-0.0671450000000002
452.4,-0.0670510000000002
452.5999999999999,-0.0661370000000001
452.8,-0.0649080000000001
452.9999999999999,-0.0666330000000001
453.19999999999993,-0.066777
453.4,-0.064912
453.5999999999999,-0.0649180000000002
453.8,-0.0663250000000001
453.9999999999999,-0.0684460000000002
454.19999999999993,-0.0703470000000001
454.4,-0.0719190000000002
454.5999999999999,-0.0726870000000001
454.8,-0.0743470000000001
454.9999999999999,-0.0740130000000001
455.19999999999993,-0.0732330000000001
455.4,-0.073066
455.5999999999999,-0.0734800000000002
455.8,-0.0715800000000002
455.9999999999999,-0.0721660000000001
456.19999999999993,-0.0731530000000002
456.4,-0.0722300000000002
456.5999999999999,-0.0698340000000001
456.8,-0.0713080000000001
456.9999999999999,-0.0712430000000001
457.19999999999993,-0.070823
457.4,-0.0726990000000002
457.5999999999999,-0.0735320000000001
457.8,-0.0730150000000002
457.9999999999999,-0.0713760000000001
458.19999999999993,-0.0709820000000001
458.4,-0.0683860000000002
458.5999999999999,-0.0681390000000001
458.8,-0.0662220000000002
458.9999999999999,-0.0648790000000001
459.19999999999993,-0.0638160000000001
459.4,-0.065943
459.5999999999999,-0.0658590000000001
459.8,-0.0661610000000001
459.9999999999999,-0.0665060000000001
460.19999999999993,-0.0666540000000002
460.4,-0.0659440000000002
460.5999999999999,-0.0668440000000001
460.8,-0.0673620000000001
460.9999999999999,-0.0676120000000002
461.19999999999993,-0.0685110000000002
461.4,-0.0685020000000002
461.5999999999999,-0.06851
461.8,-0.069271
461.9999999999999,-0.0714400000000001
462.19999999999993,-0.0724970000000002
462.4,-0.0732070000000002
462.5999999999999,-0.0742720000000001
462.8,-0.0746400000000002
462.9999999999999,-0.0732370000000002
463.19999999999993,-0.0713070000000002
463.4,-0.0711700000000001
463.5999999999999,-0.0694920000000001
463.8,-0.0676780000000001
463.9999999999999,-0.0676420000000002
464.19999999999993,-0.0712380000000001
464.4,-0.0726400000000002
464.5999999999999,-0.0749270000000001
464.8,-0.0766700000000002
464.9999999999999,-0.0772410000000001
465.19999999999993,-0.0734530000000002
465.4,-0.0709910000000002
465.5999999999999,-0.0684260000000001
465.8,-0.0685150000000001
465.9999999999999,-0.0688570000000001
466.19999999999993,-0.0710620000000001
466.4,-0.0712390000000002
466.5999999999999,-0.0708820000000001
466.8,-0.0697430000000001
466.9999999999999,-0.0697180000000001
467.19999999999993,-0.0682390000000001
467.4,-0.0669870000000001
467.5999999999999,-0.0691990000000002
467.8,-0.0719950000000002
467.9999999999999,-0.0745310000000001
468.19999999999993,-0.0765110000000002
468.4,-0.0792470000000002
468.5999999999999,-0.0784330000000002
468.8,-0.0748650000000001
468.9999999999999,-0.0725880000000001
469.19999999999993,-0.0712230000000002
469.4,-0.0701850000000001
469.5999999999999,-0.069244
469.8,-0.0702990000000001
469.9999999999999,-0.0699910000000001
470.19999999999993,-0.0696460000000001
470.4,-0.0704150000000001
470.5999999999999,-0.0694710000000002
470.8,-0.0688960000000002
470.9999999999999,-0.0696820000000002
471.19999999999993,-0.071209
471.4,-0.0699370000000001
471.5999999999999,-0.0703010000000001
471.8,-0.0715780000000001
471.9999999999999,-0.0713450000000002
472.19999999999993,-0.0706500000000001
472.4,-0.0723940000000002
472.5999999999999,-0.0739560000000001
472.8,-0.073935
472.9999999999999,-0.0748350000000002
473.19999999999993,-0.0759150000000001
473.4,-0.0757750000000001
473.5999999999999,-0.0755550000000002
473.8,-0.0746410000000001
473.9999999999999,-0.070483
474.19999999999993,-0.0678990000000001
474.4,-0.0661700000000002
474.5999999999999,-0.0652940000000001
474.8,-0.0661010000000001
474.9999999999999,-0.0688080000000002
475.19999999999993,-0.0690160000000001
475.4,-0.0676160000000001
475.5999999999999,-0.0645190000000002
475.8,-0.0618020000000001
475.9999999999999,-0.0609570000000001
476.19999999999993,-0.0637060000000002
476.4,-0.0671020000000002
476.5999999999999,-0.0727720000000002
476.8,-0.0764630000000001
476.9999999999999,-0.0794450000000002
477.19999999999993,-0.0783630000000001
477.4,-0.0778760000000002
477.5999999999999,-0.0761390000000001
477.8,-0.0741190000000002
477.9999999999999,-0.0711440000000001
478.19999999999993,-0.0702530000000001
478.4,-0.0689670000000002
478.5999999999999,-0.0675320000000001
478.8,-0.06753
478.9999999999999,-0.0677760000000002
479.19999999999993,-0.0685690000000001
479.4,-0.0685350000000002
479.5999999999999,-0.0709260000000002
479.8,-0.072518
479.9999999999999,-0.0733060000000001
480.19999999999993,-0.0733100000000002
480.4,-0.0749990000000002
480.5999999999999,-0.0750150000000002
480.8,-0.074078
480.9999999999999,-0.0747640000000002
481.19999999999993,-0.0759670000000001
481.4,-0.0755630000000002
481.5999999999999,-0.0759470000000002
481.8,-0.0764880000000001
481.9999999999999,-0.0759820000000002
482.19999999999993,-0.0729290000000002
482.4,-0.0723220000000002
482.5999999999999,-0.0723780000000002
482.8,-0.0734570000000001
482.9999999999999,-0.0726630000000001
483.19999999999993,-0.0737640000000001
483.4,-0.0731190000000001
483.5999999999999,-0.0696790000000002
483.8,-0.0660800000000001
483.9999999999999,-0.0650330000000001
484.19999999999993,-0.0652140000000001
484.4,-0.0673690000000002
484.5999999999999,-0.0709210000000002
484.8,-0.074421
484.9999999999999,-0.0772520000000001
485.19999999999993,-0.078877
485.4,-0.0780590000000001
485.5999999999999,-0.0770210000000002
485.8,-0.0767040000000001
485.9999999999999,-0.075649
486.19999999999993,-0.0740150000000001
486.4,-0.0722420000000001
486.5999999999999,-0.0712880000000002
486.8,-0.0696800000000001
486.9999999999999,-0.0687050000000002
487.19999999999993,-0.0678310000000002
487.4,-0.0684850000000001
487.5999999999999,-0.0685300000000002
487.8,-0.0681750000000001
487.9999999999999,-0.0666100000000002
488.19999999999993,-0.0655520000000002
488.4,-0.0653670000000001
488.5999999999999,-0.0656550000000002
488.8,-0.0654320000000001
488.9999999999999,-0.0650120000000002
489.19999999999993,-0.066043
489.4,-0.0660730000000002
489.5999999999999,-0.0653810000000001
489.8,-0.0669090000000001
489.9999999999999,-0.0699070000000001
490.19999999999993,-0.0725290000000002
490.4,-0.0733840000000001
490.5999999999999,-0.0745660000000001
490.8,-0.0732250000000001
490.9999999999999,-0.0722760000000002
491.19999999999993,-0.0695900000000002
491.4,-0.069927
491.5999999999999,-0.0685980000000001
491.8,-0.0687570000000001
491.9999999999999,-0.0687120000000001
492.19999999999993,-0.0712590000000001
492.4,-0.0719420000000001
492.5999999999999,-0.0743170000000001
492.8,-0.0743550000000001
492.9999999999999,-0.0747500000000001
493.19999999999993,-0.0720980000000002
493.4,-0.0708410000000001
493.5999999999999,-0.0705660000000001
493.8,-0.072062
493.9999999999999,-0.0735720000000001
494.19999999999993,-0.0757240000000001
494.4,-0.0768360000000001
494.5999999999999,-0.0765330000000001
494.8,-0.0771250000000001
494.9999999999999,-0.0762480000000001
495.19999999999993,-0.0767390000000001
495.4,-0.076302
495.5999999999999,-0.0747180000000002
495.8,-0.0725560000000002
495.9999999999999,-0.0703220000000002
496.19999999999993,-0.0686660000000001
496.4,-0.0685630000000001
496.5999999999999,-0.067989
496.8,-0.0669510000000002
496.9999999999999,-0.0654280000000002
497.19999999999993,-0.0634750000000001
497.4,-0.062383
497.5999999999999,-0.06509
497.8,-0.0680710000000002
497.9999999999999,-0.0701520000000002
498.19999999999993,-0.0709530000000002
498.4,-0.0708140000000001
498.5999999999999,-0.06929
498.8,-0.0682090000000001
498.9999999999999,-0.0693950000000001
499.19999999999993,-0.0711400000000002
499.4,-0.0733750000000001
499.5999999999999,-0.075792
499.8,-0.0766400000000002
499.9999999999999,-0.0757410000000002
500.19999999999993,-0.0731720000000002
500.4,-0.0711520000000001
500.5999999999999,-0.0698060000000002
500.8,-0.0710140000000001
500.9999999999999,-0.0740840000000002
501.19999999999993,-0.0762850000000001
501.4,-0.0774760000000001
501.5999999999999,-0.0776240000000001
501.8,-0.0760270000000002
501.9999999999999,-0.0734120000000002
502.19999999999993,-0.0727260000000002
502.4,-0.0719570000000002
502.5999999999999,-0.0723920000000002
502.8,-0.0722530000000001
502.9999999999999,-0.0731020000000002
503.19999999999993,-0.0749180000000002
503.4,-0.0770290000000002
503.5999999999999,-0.077425
503.8,-0.0788790000000001
503.9999999999999,-0.0819020000000001
504.19999999999993,-0.0831870000000001
504.4,-0.0834380000000001
504.5999999999999,-0.0844080000000002
504.8,-0.0835640000000002
504.9999999999999,-0.0807440000000001
505.19999999999993,-0.077201
505.4,-0.074313
505.5999999999999,-0.0714440000000002
505.8,-0.0699290000000001
505.9999999999999,-0.0704860000000002
506.19999999999993,-0.073638
506.4,-0.0760390000000001
506.5999999999999,-0.0772920000000001
506.8,-0.0798370000000001
506.9999999999999,-0.0811000000000001
507.19999999999993,-0.0806830000000002
507.4,-0.0805760000000002
507.5999999999999,-0.0811630000000001
507.8,-0.0813780000000001
507.99999999999983,-0.0814780000000001
508.1999999999999,-0.0807280000000001
508.3999999999999,-0.0808360000000001
508.6,-0.0807060000000001
508.8,-0.0801270000000002
508.99999999999983,-0.0790000000000001
509.1999999999999,-0.0797720000000001
509.3999999999999,-0.0787170000000001
509.6,-0.0769480000000002
509.8,-0.0727920000000001
509.99999999999983,-0.0693080000000001
510.1999999999999,-0.0675010000000002
510.3999999999999,-0.0674690000000002
510.6,-0.0677590000000001
510.8,-0.0705850000000001
510.99999999999983,-0.0732290000000002
511.1999999999999,-0.0741470000000001
511.3999999999999,-0.0741210000000001
511.6,-0.0753060000000001
511.8,-0.075128
511.99999999999983,-0.0735010000000002
512.1999999999998,-0.0725140000000001
512.3999999999999,-0.0729490000000001
512.5999999999999,-0.0738830000000001
512.8,-0.0755830000000001
512.9999999999998,-0.0785730000000002
513.1999999999998,-0.0789880000000002
513.3999999999999,-0.0771260000000002
513.5999999999999,-0.0741570000000002
513.8,-0.0741250000000002
513.9999999999998,-0.0754750000000001
514.1999999999998,-0.0782570000000002
514.3999999999999,-0.0817430000000001
514.5999999999999,-0.0851480000000002
514.8,-0.0856180000000002
514.9999999999998,-0.0836540000000001
515.1999999999998,-0.0809060000000001
515.3999999999999,-0.0773880000000002
515.5999999999999,-0.0745830000000002
515.8,-0.0729640000000002
515.9999999999998,-0.0703130000000002
516.1999999999998,-0.0692200000000002
516.3999999999999,-0.0691390000000002
516.5999999999999,-0.0704360000000001
516.8,-0.0688350000000002
516.9999999999998,-0.0702070000000001
517.1999999999998,-0.0727540000000002
517.3999999999999,-0.0754110000000001
517.5999999999999,-0.0755000000000001
517.8,-0.0747800000000002
517.9999999999998,-0.0735530000000002
518.1999999999998,-0.0724340000000001
518.3999999999999,-0.0734720000000002
518.5999999999999,-0.0745940000000002
518.8,-0.0798140000000002
518.9999999999998,-0.085085
519.1999999999998,-0.0862130000000001
519.3999999999999,-0.0843310000000001
519.5999999999999,-0.0817850000000002
519.8,-0.077595
519.9999999999998,-0.0730830000000002
520.1999999999998,-0.0715250000000002
520.3999999999999,-0.0720750000000001
520.5999999999999,-0.0740260000000001
520.8,-0.0768590000000002
520.9999999999998,-0.0789560000000002
521.1999999999998,-0.0815620000000001
521.3999999999999,-0.0822920000000002
521.5999999999999,-0.0826650000000002
521.8,-0.0834550000000002
521.9999999999998,-0.0848950000000001
522.1999999999998,-0.0840690000000001
522.3999999999999,-0.0829930000000001
522.5999999999999,-0.0826510000000002
522.8,-0.0799710000000002
522.9999999999998,-0.0769180000000002
523.1999999999998,-0.0744480000000002
523.3999999999999,-0.0751320000000002
523.5999999999999,-0.0762640000000001
523.8,-0.077865
523.9999999999998,-0.0773310000000002
524.1999999999998,-0.0782930000000001
524.3999999999999,-0.0771830000000002
524.5999999999999,-0.0770150000000002
524.8,-0.0764970000000002
524.9999999999998,-0.0786510000000002
525.1999999999998,-0.0812720000000002
525.3999999999999,-0.0830410000000001
525.5999999999999,-0.0829260000000002
525.8,-0.084035
525.9999999999998,-0.0835360000000002
526.1999999999998,-0.0813200000000002
526.3999999999999,-0.081398
526.5999999999999,-0.081352
526.8,-0.0799430000000001
526.9999999999998,-0.0791930000000002
527.1999999999998,-0.0782790000000002
527.3999999999999,-0.0772320000000001
527.5999999999999,-0.0763360000000001
527.8,-0.0774930000000002
527.9999999999998,-0.0780250000000002
528.1999999999998,-0.0791680000000001
528.3999999999999,-0.0778990000000001
528.5999999999999,-0.0751460000000001
528.8,-0.0719010000000002
528.9999999999998,-0.0707380000000001
529.1999999999998,-0.069468
529.3999999999999,-0.0706970000000002
529.5999999999999,-0.0731440000000001
529.8,-0.0754580000000002
529.9999999999998,-0.0766630000000001
530.1999999999998,-0.0790190000000001
530.3999999999999,-0.0800730000000002
530.5999999999999,-0.0820230000000001
530.8,-0.0836300000000001
530.9999999999998,-0.0855080000000001
531.1999999999998,-0.0845480000000002
531.3999999999999,-0.0835580000000002
531.5999999999999,-0.0816200000000002
531.8,-0.0802310000000001
531.9999999999998,-0.0781100000000001
532.1999999999998,-0.076939
532.3999999999999,-0.076537
532.5999999999999,-0.0777610000000001
532.8,-0.0782140000000002
532.9999999999998,-0.0786890000000002
533.1999999999998,-0.0791310000000002
533.3999999999999,-0.0781450000000001
533.5999999999999,-0.0770530000000002
533.8,-0.0769640000000002
533.9999999999998,-0.0774280000000002
534.1999999999998,-0.0771660000000002
534.3999999999999,-0.0770970000000002
534.5999999999999,-0.0745930000000001
534.8,-0.0729030000000001
534.9999999999998,-0.071155
535.1999999999998,-0.0712910000000002
535.3999999999999,-0.0713040000000002
535.5999999999999,-0.0724330000000001
535.8,-0.0723660000000001
535.9999999999998,-0.0721010000000001
536.1999999999998,-0.0710600000000001
536.3999999999999,-0.0722190000000002
536.5999999999999,-0.0740860000000001
536.8,-0.0761920000000002
536.9999999999998,-0.078402
537.1999999999998,-0.0789910000000002
537.3999999999999,-0.078761
537.5999999999999,-0.0791770000000002
537.8,-0.0779330000000002
537.9999999999998,-0.0767730000000002
538.1999999999998,-0.0791380000000001
538.3999999999999,-0.0803850000000001
538.5999999999999,-0.0810440000000001
538.8,-0.0819490000000002
538.9999999999998,-0.0839120000000002
539.1999999999998,-0.0837270000000001
539.3999999999999,-0.0838560000000001
539.5999999999999,-0.0837200000000002
539.8,-0.0834730000000001
539.9999999999998,-0.0815920000000001
540.1999999999998,-0.0790710000000001
540.3999999999999,-0.0782620000000002
540.5999999999999,-0.0776240000000001
540.8,-0.0790520000000001
540.9999999999998,-0.0803190000000002
541.1999999999998,-0.0832260000000002
541.3999999999999,-0.082969
541.5999999999999,-0.0821870000000002
541.8,-0.0784670000000002
541.9999999999998,-0.0789540000000001
542.1999999999998,-0.0775280000000002
542.3999999999999,-0.0773600000000001
542.5999999999999,-0.0774990000000002
542.8,-0.0809820000000001
542.9999999999998,-0.0805330000000001
543.1999999999998,-0.0807830000000002
543.3999999999999,-0.0807770000000001
543.5999999999999,-0.0802630000000002
543.8,-0.0785460000000002
543.9999999999998,-0.077398
544.1999999999998,-0.0780590000000001
544.3999999999999,-0.0777980000000002
544.5999999999999,-0.0774650000000001
544.8,-0.0778260000000001
544.9999999999998,-0.0792110000000001
545.1999999999998,-0.0806470000000001
545.3999999999999,-0.0808430000000002
545.5999999999999,-0.081819
545.8,-0.082097
545.9999999999998,-0.0827190000000002
546.1999999999998,-0.0822160000000002
546.3999999999999,-0.0824820000000001
546.5999999999999,-0.0820050000000001
546.8,-0.082583
546.9999999999998,-0.0827310000000001
547.1999999999998,-0.0812950000000001
547.3999999999999,-0.0810560000000002
547.5999999999999,-0.0816880000000002
547.8,-0.0831270000000001
547.9999999999998,-0.0834190000000001
548.1999999999998,-0.0829550000000001
548.3999999999999,-0.0810910000000002
548.5999999999999,-0.0776280000000002
548.8,-0.0738710000000002
548.9999999999998,-0.0702080000000002
549.1999999999998,-0.0691410000000001
549.3999999999999,-0.0702660000000001
549.5999999999999,-0.072213
549.8,-0.0729810000000001
549.9999999999998,-0.072885
550.1999999999998,-0.0729560000000002
550.3999999999999,-0.0728380000000001
550.5999999999999,-0.0752050000000001
550.8,-0.0776260000000002
550.9999999999998,-0.0814660000000002
551.1999999999998,-0.0827250000000001
551.3999999999999,-0.0845090000000001
551.5999999999999,-0.0843990000000001
551.8,-0.0843140000000002
551.9999999999998,-0.0825030000000002
552.1999999999998,-0.0824470000000001
552.3999999999999,-0.082429
552.5999999999999,-0.0823190000000002
552.8,-0.0809400000000002
552.9999999999998,-0.0811990000000002
553.1999999999998,-0.0825340000000001
553.3999999999999,-0.0824650000000002
553.5999999999999,-0.0824250000000001
553.8,-0.0833740000000002
553.9999999999998,-0.0845940000000002
554.1999999999998,-0.0842720000000001
554.3999999999999,-0.0834800000000002
554.5999999999999,-0.0813610000000002
554.8,-0.0796320000000001
554.9999999999998,-0.0783680000000002
555.1999999999998,-0.077908
555.3999999999999,-0.0788820000000001
555.5999999999999,-0.0809400000000002
555.8,-0.0829540000000002
555.9999999999998,-0.083919
556.1999999999998,-0.0850790000000001
556.3999999999999,-0.0855500000000002
556.5999999999999,-0.0859740000000002
556.8,-0.0858530000000001
556.9999999999998,-0.085155
557.1999999999998,-0.0843920000000002
557.3999999999999,-0.083533
557.5999999999999,-0.0830980000000001
557.8,-0.0822680000000002
557.9999999999998,-0.0814840000000001
558.1999999999998,-0.0810270000000001
558.3999999999999,-0.0819900000000002
558.5999999999999,-0.083182
558.8,-0.0841270000000002
558.9999999999998,-0.086386
559.1999999999998,-0.0871160000000002
559.3999999999999,-0.0883890000000002
559.5999999999999,-0.0880780000000001
559.8,-0.0872000000000001
559.9999999999998,-0.0839280000000002
560.1999999999998,-0.0831310000000002
560.3999999999999,-0.0820670000000001
560.5999999999999,-0.0837320000000001
560.8,-0.086
560.9999999999998,-0.0890530000000002
561.1999999999998,-0.0888980000000001
561.3999999999999,-0.087765
561.5999999999999,-0.0829480000000002
561.8,-0.0798530000000001
561.9999999999998,-0.0764880000000001
562.1999999999998,-0.078464
562.3999999999999,-0.0793160000000001
562.5999999999999,-0.0812270000000001
562.8,-0.0803630000000001
562.9999999999998,-0.0816810000000001
563.1999999999998,-0.0798930000000002
563.3999999999999,-0.0798860000000001
563.5999999999999,-0.0814910000000002
563.8,-0.083344
563.9999999999998,-0.0836400000000001
564.1999999999998,-0.0837750000000001
564.3999999999999,-0.0844070000000001
564.5999999999999,-0.0846710000000001
564.8,-0.087363
564.9999999999998,-0.0893850000000002
565.1999999999998,-0.0915160000000001
565.3999999999999,-0.0914180000000002
565.5999999999999,-0.0916020000000001
565.8,-0.0894670000000001
565.9999999999998,-0.0870680000000001
566.1999999999998,-0.0848380000000001
566.3999999999999,-0.084332
566.5999999999999,-0.0834020000000002
566.8,-0.0827150000000001
566.9999999999998,-0.0815470000000002
567.1999999999998,-0.0808240000000002
567.3999999999999,-0.0787550000000001
567.5999999999999,-0.0779630000000002
567.8,-0.0789980000000001
567.9999999999998,-0.082664
568.1999999999998,-0.085209
568.3999999999999,-0.085444
568.5999999999999,-0.0841660000000001
568.8,-0.0803040000000001
568.9999999999998,-0.0762900000000001
569.1999999999998,-0.0726200000000001
569.3999999999999,-0.0723760000000002
569.5999999999999,-0.0712120000000002
569.7999999999997,-0.0741930000000001
569.9999999999998,-0.0763300000000002
570.1999999999998,-0.0778610000000001
570.3999999999999,-0.0785840000000002
570.5999999999999,-0.0816470000000002
570.7999999999997,-0.0807680000000001
570.9999999999998,-0.0812600000000001
571.1999999999998,-0.0815250000000002
571.3999999999999,-0.0817460000000001
571.5999999999999,-0.0805310000000001
571.7999999999997,-0.0823330000000002
571.9999999999998,-0.0830530000000002
572.1999999999998,-0.0840720000000001
572.3999999999999,-0.0845340000000001
572.5999999999999,-0.0863220000000002
572.7999999999997,-0.086591
572.9999999999998,-0.0859980000000002
573.1999999999998,-0.0855920000000001
573.3999999999999,-0.0867660000000001
573.5999999999999,-0.0852950000000001
573.7999999999997,-0.0833990000000002
573.9999999999998,-0.0810990000000002
574.1999999999998,-0.0799950000000002
574.3999999999999,-0.0788600000000001
574.5999999999999,-0.0810830000000002
574.7999999999997,-0.0834580000000002
574.9999999999998,-0.0874770000000002
575.1999999999998,-0.0893740000000002
575.3999999999999,-0.0902770000000001
575.5999999999999,-0.0876100000000001
575.7999999999997,-0.0856640000000001
575.9999999999998,-0.0841180000000001
576.1999999999998,-0.0843230000000001
576.3999999999999,-0.0845400000000002
576.5999999999999,-0.0865080000000002
576.7999999999997,-0.0871230000000002
576.9999999999998,-0.0866230000000001
577.1999999999998,-0.086027
577.3999999999999,-0.0864360000000001
577.5999999999999,-0.0872510000000001
577.7999999999997,-0.0883810000000002
577.9999999999998,-0.0898140000000002
578.1999999999998,-0.0889710000000001
578.3999999999999,-0.0869000000000002
578.5999999999999,-0.0853420000000002
578.7999999999997,-0.0847270000000002
578.9999999999998,-0.0840140000000002
579.1999999999998,-0.0846750000000002
579.3999999999999,-0.0866250000000001
579.5999999999999,-0.0879550000000002
579.7999999999997,-0.088826
579.9999999999998,-0.0892680000000001
580.1999999999998,-0.0892060000000001
580.3999999999999,-0.0889880000000002
580.5999999999999,-0.0881550000000002
580.7999999999997,-0.0872080000000001
580.9999999999998,-0.0863930000000001
581.1999999999998,-0.0852230000000002
581.3999999999999,-0.0839720000000001
581.5999999999999,-0.082305
581.7999999999997,-0.0814820000000002
581.9999999999998,-0.0833670000000001
582.1999999999998,-0.0851680000000001
582.3999999999999,-0.0861090000000002
582.5999999999999,-0.086591
582.7999999999997,-0.0876290000000001
582.9999999999998,-0.0872750000000002
583.1999999999998,-0.0885540000000002
583.3999999999999,-0.0891450000000002
583.5999999999999,-0.0902610000000001
583.7999999999997,-0.0891960000000002
583.9999999999998,-0.0865970000000002
584.1999999999998,-0.0851840000000001
584.3999999999999,-0.0856620000000001
584.5999999999999,-0.0860370000000001
584.7999999999997,-0.0867570000000002
584.9999999999998,-0.0878710000000002
585.1999999999998,-0.0884920000000002
585.3999999999999,-0.0876700000000001
585.5999999999999,-0.0864840000000002
585.7999999999997,-0.0851150000000002
585.9999999999998,-0.0842790000000002
586.1999999999998,-0.0829780000000002
586.3999999999999,-0.0822840000000002
586.5999999999999,-0.0830910000000002
586.7999999999997,-0.0851240000000002
586.9999999999998,-0.0869630000000001
587.1999999999998,-0.0881540000000002
587.3999999999999,-0.0881750000000001
587.5999999999999,-0.0866310000000001
587.7999999999997,-0.0851970000000001
587.9999999999998,-0.0848140000000001
588.1999999999998,-0.0853680000000001
588.3999999999999,-0.086189
588.5999999999999,-0.0880850000000001
588.7999999999997,-0.0892940000000002
588.9999999999998,-0.0892580000000002
589.1999999999998,-0.088
589.3999999999999,-0.0869900000000001
589.5999999999999,-0.0863020000000001
589.7999999999997,-0.0862530000000001
589.9999999999998,-0.087228
590.1999999999998,-0.0881630000000002
590.3999999999999,-0.0896270000000001
590.5999999999999,-0.0906400000000002
590.7999999999997,-0.0913030000000001
590.9999999999998,-0.091803
591.1999999999998,-0.0928200000000001
591.3999999999999,-0.0934130000000001
591.5999999999999,-0.0932340000000002
591.7999999999997,-0.0935780000000001
591.9999999999998,-0.0944490000000002
592.1999999999998,-0.0939140000000002
592.3999999999999,-0.0929570000000001
592.5999999999999,-0.0909330000000001
592.7999999999997,-0.0878810000000001
592.9999999999998,-0.0850520000000001
593.1999999999998,-0.0841540000000002
593.3999999999999,-0.0828560000000002
593.5999999999999,-0.0828190000000002
593.7999999999997,-0.0853730000000001
593.9999999999998,-0.0872700000000001
594.1999999999998,-0.0870950000000001
594.3999999999999,-0.0865180000000001
594.5999999999999,-0.0860730000000002
594.7999999999997,-0.0842900000000002
594.9999999999998,-0.0828240000000002
