Time (s),Shift (nm)
0.0,0.0
0.1999999999999886,0.0038549999999999
0.4000000000000341,0.005049
0.6000000000000227,0.004796
0.8000000000000114,0.0049919999999998
1.0,0.0072699999999998
1.1999999999999886,0.007557
1.400000000000034,0.008861
1.6000000000000227,0.0100819999999999
1.8000000000000114,0.008939
2.0,0.0064379999999999
2.1999999999999886,0.00417
2.400000000000034,0.003279
2.6000000000000227,0.0047719999999999
2.800000000000012,0.0071369999999999
3.0,0.009058
3.1999999999999886,0.011336
3.400000000000034,0.0108189999999999
3.6000000000000227,0.0085519999999998
3.8000000000000114,0.007095
4.0,0.006526
4.199999999999989,0.0069559999999999
4.400000000000034,0.00827
4.600000000000023,0.01079
4.800000000000011,0.0119639999999998
5.0,0.0123809999999999
5.199999999999989,0.013778
5.400000000000034,0.015276
5.600000000000023,0.015522
5.800000000000011,0.0162149999999998
6.0,0.0173509999999998
6.199999999999989,0.0172619999999998
6.400000000000034,0.0142809999999999
6.600000000000023,0.010291
6.800000000000011,0.0088369999999999
7.0,0.008189
7.199999999999989,0.0080059999999999
7.400000000000034,0.0102489999999999
7.600000000000023,0.013055
7.800000000000011,0.012097
8.0,0.011274
8.199999999999989,0.009257
8.400000000000034,0.0073749999999999
8.600000000000023,0.0066699999999999
8.800000000000011,0.007309
9.0,0.0073609999999999
9.199999999999989,0.008129
9.400000000000034,0.0090189999999998
9.600000000000025,0.008396
9.800000000000011,0.008321
10.0,0.007884
10.199999999999989,0.007919
10.400000000000034,0.008269
10.600000000000025,0.008871
10.800000000000011,0.009994
11.0,0.010834
11.199999999999989,0.0103269999999999
11.400000000000034,0.0096579999999999
11.600000000000025,0.011131
11.800000000000011,0.0136979999999999
12.0,0.0158229999999999
12.199999999999989,0.0156499999999999
12.400000000000034,0.0138829999999998
12.600000000000025,0.0116929999999999
12.800000000000011,0.0086979999999998
13.0,0.00729
13.199999999999989,0.008294
13.400000000000034,0.0097749999999998
13.600000000000025,0.0106189999999999
13.800000000000011,0.0117339999999999
14.0,0.012072
14.199999999999989,0.0123309999999998
14.400000000000034,0.0135239999999998
14.600000000000025,0.01387
14.800000000000011,0.0134239999999998
15.0,0.013095
15.199999999999989,0.013217
15.400000000000034,0.012874
15.600000000000025,0.011392
15.800000000000011,0.0099389999999999
16.0,0.0076199999999999
16.19999999999999,0.00672
16.400000000000034,0.0062219999999999
16.600000000000023,0.0094259999999999
16.80000000000001,0.0139599999999999
17.0,0.0159629999999999
17.19999999999999,0.015025
17.400000000000034,0.0149429999999999
17.600000000000023,0.0140839999999999
17.80000000000001,0.0119629999999999
18.0,0.0134279999999999
18.19999999999999,0.0163979999999999
18.400000000000038,0.0180679999999999
18.600000000000023,0.0170189999999998
18.80000000000001,0.0159139999999999
19.0,0.014162
19.19999999999999,0.0114469999999999
19.400000000000038,0.01085
19.600000000000023,0.0136689999999999
19.80000000000001,0.016831
20.0,0.018593
20.19999999999999,0.0206219999999999
20.400000000000038,0.0215579999999999
20.600000000000023,0.020939
20.80000000000001,0.0181249999999999
21.0,0.0158899999999999
21.19999999999999,0.013471
21.400000000000038,0.010696
21.600000000000023,0.0085819999999998
21.80000000000001,0.0082119999999998
22.0,0.0104999999999999
22.19999999999999,0.0114549999999999
22.400000000000038,0.010817
22.600000000000023,0.00957
22.80000000000001,0.0086359999999998
23.0,0.006558
23.19999999999999,0.0072189999999998
23.400000000000038,0.0069829999999999
23.600000000000023,0.0046949999999998
23.80000000000001,0.002591
24.0,0.0033739999999999
24.19999999999999,0.0053879999999999
24.400000000000038,0.009546
24.600000000000023,0.013244
24.80000000000001,0.013881
25.0,0.0121979999999999
25.19999999999999,0.0112069999999999
25.400000000000038,0.008782
25.600000000000023,0.0092429999999998
25.80000000000001,0.0127679999999998
26.0,0.016118
26.19999999999999,0.014302
26.400000000000038,0.0146429999999999
26.600000000000023,0.0153859999999999
26.80000000000001,0.017506
27.0,0.0171969999999999
27.19999999999999,0.017714
27.400000000000038,0.0171879999999999
27.600000000000023,0.018701
27.80000000000001,0.0174119999999999
28.0,0.0171919999999998
28.19999999999999,0.0158549999999999
28.400000000000038,0.0150079999999999
28.600000000000023,0.012531
28.80000000000001,0.0123279999999998
29.0,0.011182
29.19999999999999,0.010394
29.400000000000038,0.0089949999999998
29.600000000000023,0.007287
29.80000000000001,0.0033429999999998
30.0,0.0007129999999999
30.19999999999999,0.002029
30.400000000000038,0.0062229999999998
30.600000000000023,0.008928
30.80000000000001,0.0108369999999999
31.0,0.0117659999999999
31.19999999999999,0.0117719999999998
31.400000000000038,0.0102359999999999
31.600000000000023,0.0082999999999999
31.80000000000001,0.007762
32.0,0.0087139999999998
32.19999999999999,0.0086939999999999
32.400000000000034,0.0104929999999998
32.60000000000002,0.0153809999999998
32.80000000000001,0.0178879999999999
33.0,0.0184439999999999
33.19999999999999,0.0201689999999998
33.400000000000034,0.0221199999999999
33.60000000000002,0.0204919999999999
33.80000000000001,0.018688
34.0,0.016998
34.19999999999999,0.016324
34.400000000000034,0.0126779999999999
34.60000000000002,0.0089649999999998
34.80000000000001,0.0069399999999999
35.0,0.0079989999999998
35.19999999999999,0.0092429999999998
35.400000000000034,0.0100499999999998
35.60000000000002,0.0106619999999999
35.80000000000001,0.0133229999999999
36.0,0.014761
36.19999999999999,0.013951
36.400000000000034,0.0128719999999999
36.60000000000002,0.012866
36.80000000000001,0.012159
37.0,0.010979
37.19999999999999,0.0090209999999999
37.400000000000034,0.009816
37.60000000000002,0.0123889999999999
37.80000000000001,0.0146239999999999
38.0,0.0150369999999999
38.19999999999999,0.015608
38.400000000000034,0.0151539999999998
38.60000000000002,0.01268
38.80000000000001,0.010046
39.0,0.0077679999999999
39.19999999999999,0.0074549999999999
39.400000000000034,0.006572
39.60000000000002,0.0058019999999998
39.80000000000001,0.0058449999999998
40.0,0.0080089999999999
40.19999999999999,0.0090759999999998
40.400000000000034,0.009233
40.60000000000002,0.0099449999999998
40.80000000000001,0.008996
41.0,0.0068399999999999
41.19999999999999,0.0052879999999999
41.400000000000034,0.00451
41.60000000000002,0.003435
41.80000000000001,0.0041359999999999
42.0,0.0057829999999998
42.19999999999999,0.0076879999999999
42.400000000000034,0.0100279999999999
42.60000000000002,0.0132079999999998
42.80000000000001,0.0170049999999999
43.0,0.0212459999999998
43.19999999999999,0.0223839999999999
43.400000000000034,0.0206509999999999
43.60000000000002,0.018858
43.80000000000001,0.0153209999999999
44.0,0.0098629999999999
44.19999999999999,0.0076559999999998
44.400000000000034,0.0100389999999999
44.60000000000002,0.011422
44.80000000000001,0.013225
45.0,0.0159099999999998
45.19999999999999,0.016056
45.400000000000034,0.014089
45.60000000000002,0.012375
45.80000000000001,0.0104739999999998
46.0,0.0089449999999999
46.19999999999999,0.0103409999999999
46.400000000000034,0.0108319999999999
46.60000000000002,0.0122439999999999
46.80000000000001,0.014882
47.0,0.0185459999999999
47.19999999999999,0.0203189999999999
47.400000000000034,0.020812
47.60000000000002,0.019257
47.80000000000001,0.0167169999999998
48.0,0.0133619999999998
48.19999999999999,0.012097
48.400000000000034,0.011821
48.60000000000002,0.012944
48.80000000000001,0.0135339999999999
49.0,0.013282
49.19999999999999,0.011314
49.400000000000034,0.0113739999999999
49.60000000000002,0.0107209999999999
49.80000000000001,0.009894
50.0,0.0088209999999999
50.19999999999999,0.0051879999999999
50.400000000000034,0.0018739999999999
50.60000000000002,0.002523
50.80000000000001,0.004413
51.0,0.0067669999999999
51.19999999999999,0.009989
51.400000000000034,0.0111969999999999
51.60000000000002,0.0086269999999999
51.80000000000001,0.0053119999999999
52.0,0.004691
52.19999999999999,0.0071109999999998
52.400000000000034,0.010647
52.60000000000002,0.013214
52.80000000000001,0.0145819999999998
53.0,0.0132149999999999
53.19999999999999,0.0091829999999999
53.400000000000034,0.005325
53.60000000000002,0.0028329999999998
53.80000000000001,0.002116
54.0,0.0022329999999999
54.19999999999999,0.0042699999999999
54.400000000000034,0.0055339999999999
54.60000000000002,0.0062649999999999
54.80000000000001,0.0067439999999998
55.0,0.0061849999999998
55.19999999999999,0.004844
55.400000000000034,0.002356
55.60000000000002,0.002653
55.80000000000001,0.004191
56.0,0.0069539999999999
56.19999999999999,0.0108809999999999
56.400000000000034,0.0149479999999999
56.60000000000002,0.0144029999999999
56.80000000000001,0.0124439999999999
57.0,0.0098499999999999
57.19999999999999,0.0070829999999999
57.400000000000034,0.005236
57.60000000000002,0.0049809999999999
57.80000000000001,0.0063349999999999
58.0,0.0070299999999998
58.19999999999999,0.0078199999999999
58.400000000000034,0.0085159999999999
58.60000000000002,0.0098339999999998
58.80000000000001,0.0097799999999999
59.0,0.011279
59.19999999999999,0.011678
59.400000000000034,0.0125109999999999
59.60000000000002,0.012404
59.80000000000001,0.0136289999999998
60.0,0.012726
60.19999999999999,0.0106649999999999
60.400000000000034,0.0064729999999999
60.60000000000002,0.0040069999999998
60.80000000000001,0.001319
61.0,0.0022189999999999
61.19999999999999,0.0039519999999999
61.400000000000034,0.009276
61.60000000000002,0.014351
61.80000000000001,0.017236
62.00000000000006,0.0176499999999999
62.19999999999999,0.017571
62.400000000000034,0.0141469999999999
62.599999999999966,0.010774
62.80000000000001,0.0082899999999999
63.00000000000006,0.00739
63.19999999999999,0.0065379999999999
63.400000000000034,0.0060469999999999
63.599999999999966,0.0067139999999998
63.80000000000001,0.0052369999999999
64.00000000000006,0.002812
64.19999999999999,0.0005169999999998
64.40000000000003,0.0028729999999999
64.59999999999997,0.002785
64.80000000000001,0.0051179999999999
65.00000000000006,0.0072859999999999
65.19999999999999,0.009875
65.40000000000003,0.007803
65.59999999999997,0.0057149999999999
65.80000000000001,0.0053879999999999
66.00000000000006,0.003867
66.19999999999999,0.0039839999999999
66.40000000000003,0.003444
66.59999999999997,0.002936
66.80000000000001,0.0004899999999998
67.00000000000006,-0.000177
67.19999999999999,-0.0007719999999999
67.40000000000003,0.001344
67.59999999999997,0.0052269999999998
67.80000000000001,0.010588
68.00000000000006,0.0138329999999999
68.19999999999999,0.0125189999999999
68.40000000000003,0.0103679999999999
68.59999999999997,0.008016
68.80000000000001,0.0046269999999999
69.00000000000006,0.0038099999999998
69.19999999999999,0.004774
69.40000000000003,0.0063869999999999
69.59999999999997,0.0062699999999999
69.80000000000001,0.0052069999999999
70.00000000000006,0.0043699999999999
70.19999999999999,0.004923
70.40000000000003,0.0060929999999999
70.59999999999997,0.0081759999999999
70.80000000000001,0.0088109999999999
71.00000000000006,0.0045139999999999
71.19999999999999,0.0018549999999999
71.40000000000003,0.0009259999999999
71.59999999999997,7.599999999996498e-05
71.80000000000001,-0.0010259999999999
72.00000000000006,0.0012559999999999
72.19999999999999,0.0025759999999999
72.40000000000003,-0.0007719999999999
72.59999999999997,-0.004027
72.80000000000001,-0.0048749999999999
73.00000000000006,-0.002359
73.19999999999999,0.0009909999999999
73.40000000000003,0.0074199999999999
73.59999999999997,0.0118899999999999
73.80000000000001,0.014602
74.00000000000006,0.0153019999999999
74.19999999999999,0.0143629999999999
74.40000000000003,0.010847
74.59999999999997,0.0067829999999999
74.80000000000001,0.0030959999999999
75.00000000000006,-0.0010730000000001
75.19999999999999,-0.0036419999999999
75.40000000000003,-0.0027030000000001
75.59999999999997,0.0004509999999999
75.80000000000001,0.0031969999999998
76.00000000000006,0.0051859999999999
76.19999999999999,0.005036
76.40000000000003,0.0028969999999999
76.59999999999997,0.0008909999999999
76.80000000000001,0.0008019999999999
77.00000000000006,0.000863
77.19999999999999,0.0014069999999999
77.40000000000003,0.0042489999999999
77.59999999999997,0.0074179999999999
77.80000000000001,0.010345
78.00000000000006,0.0130369999999999
78.19999999999999,0.0160089999999999
78.40000000000003,0.0154619999999998
78.59999999999997,0.014561
78.80000000000001,0.0145539999999999
79.00000000000006,0.013341
79.19999999999999,0.0114589999999998
79.40000000000003,0.010089
79.59999999999997,0.0073589999999998
79.80000000000001,0.004321
80.00000000000006,0.0020279999999999
80.19999999999999,0.0023679999999999
80.40000000000003,0.003357
80.59999999999997,0.0084969999999999
80.80000000000001,0.0116439999999999
81.00000000000006,0.0141219999999999
81.19999999999999,0.0142119999999998
81.40000000000003,0.013036
81.59999999999997,0.007363
81.80000000000001,0.0046159999999999
82.00000000000006,0.002637
82.19999999999999,0.001781
82.40000000000003,0.0019259999999998
82.59999999999997,0.0042309999999998
82.80000000000001,0.003236
83.00000000000006,0.000812
83.19999999999999,-0.001878
83.40000000000003,-0.002305
83.59999999999997,-0.0013719999999999
83.80000000000001,0.000593
84.00000000000006,0.0044459999999999
84.19999999999999,0.0074749999999998
84.40000000000003,0.0074579999999999
84.59999999999997,0.0062029999999999
84.80000000000001,0.00539
85.00000000000006,0.0047909999999999
85.19999999999999,0.005954
85.40000000000003,0.008145
85.59999999999997,0.0073659999999999
85.80000000000001,0.00756
86.00000000000006,0.007981
86.19999999999999,0.007368
86.40000000000003,0.005465
86.59999999999997,0.0071039999999999
86.80000000000001,0.007457
87.00000000000006,0.0067049999999999
87.19999999999999,0.0066559999999999
87.40000000000003,0.0086559999999999
87.59999999999997,0.008502
87.80000000000001,0.0092269999999998
88.00000000000006,0.0100629999999999
88.19999999999999,0.0094719999999999
88.40000000000003,0.006601
88.59999999999997,0.0034359999999999
88.80000000000001,0.0011209999999999
89.00000000000006,0.0021929999999998
89.19999999999999,0.0051309999999999
89.40000000000003,0.008302
89.59999999999997,0.0128209999999999
89.80000000000001,0.0162149999999998
90.00000000000006,0.0135769999999999
90.2,0.008906
90.40000000000003,0.005498
90.59999999999997,0.0029609999999999
90.8,4.199999999987547e-05
91.00000000000006,0.001114
91.2,0.000523
91.40000000000003,0.0009289999999999
91.59999999999997,0.000707
91.8,0.001889
92.00000000000006,0.002871
92.2,0.005152
92.40000000000003,0.0067109999999999
92.59999999999997,0.0087289999999999
92.8,0.0099059999999999
93.00000000000006,0.0100649999999999
93.2,0.0110379999999998
93.40000000000003,0.0103979999999999
93.59999999999997,0.009633
93.8,0.0093239999999998
94.00000000000006,0.008604
94.2,0.0074939999999998
94.40000000000003,0.0073509999999998
94.59999999999997,0.009141
94.8,0.0078879999999998
95.00000000000006,0.0069109999999998
95.2,0.0064839999999999
95.40000000000003,0.0061439999999999
95.59999999999997,0.0027369999999999
95.8,0.0047909999999999
96.00000000000006,0.008105
96.2,0.009338
96.40000000000003,0.008834
96.59999999999997,0.00963
96.8,0.0074659999999999
97.00000000000006,0.005552
97.2,0.004796
97.40000000000003,0.004901
97.59999999999997,0.00418
97.8,0.004485
98.00000000000006,0.0055279999999999
98.2,0.0071369999999999
98.40000000000003,0.0084619999999999
98.59999999999997,0.0122329999999999
98.8,0.01424
99.00000000000006,0.0137089999999999
99.2,0.0117579999999999
99.40000000000003,0.01323
99.59999999999997,0.0100819999999999
99.8,0.0076249999999999
100.00000000000006,0.0050029999999998
100.2,0.0063599999999999
100.40000000000003,0.0045459999999999
100.59999999999997,0.0036899999999999
100.8,0.003902
101.00000000000006,0.006081
101.2,0.0049049999999999
101.40000000000003,0.006866
101.59999999999997,0.0095319999999998
101.8,0.0113799999999999
102.00000000000006,0.01102
102.2,0.0115389999999999
102.40000000000003,0.009238
102.59999999999997,0.0079869999999999
102.8,0.007913
103.00000000000006,0.009816
103.2,0.0104009999999998
103.40000000000003,0.0113989999999999
103.59999999999997,0.0137829999999998
103.8,0.0142029999999999
104.00000000000006,0.0134849999999999
104.2,0.014221
104.40000000000003,0.0131079999999998
104.59999999999997,0.0082659999999998
104.8,0.00394
105.00000000000006,0.001322
105.2,-0.0013830000000001
105.40000000000003,-0.0013799999999999
105.59999999999997,0.000534
105.8,0.0031069999999999
106.00000000000006,0.0063249999999999
106.2,0.0078099999999998
106.40000000000003,0.0079769999999999
106.59999999999997,0.0086589999999999
106.8,0.009463
107.00000000000006,0.008947
107.2,0.010326
107.40000000000003,0.0124079999999999
107.59999999999997,0.0131589999999999
107.8,0.0124329999999999
108.00000000000006,0.011319
108.2,0.009616
108.40000000000003,0.006075
108.59999999999997,0.004148
108.8,0.0043789999999999
109.00000000000006,0.003919
109.2,0.0055879999999999
109.40000000000003,0.0074719999999999
109.59999999999997,0.0075439999999999
109.8,0.0077499999999999
110.00000000000006,0.0089809999999999
110.2,0.0091729999999998
110.40000000000003,0.0083839999999999
110.59999999999997,0.007411
110.8,0.003635
111.00000000000006,-0.00045
111.2,-0.003168
111.40000000000003,-0.001505
111.59999999999997,0.0004189999999999
111.8,0.0016979999999999
112.00000000000006,0.0024459999999999
112.2,0.0015629999999999
112.40000000000003,-0.000582
112.59999999999997,-0.0018039999999999
112.8,-9.300000000012076e-05
113.00000000000006,0.0029109999999998
113.2,0.0066089999999998
113.40000000000003,0.010691
113.59999999999997,0.013673
113.8,0.0156439999999999
114.00000000000006,0.0166569999999999
114.2,0.0147439999999998
114.40000000000003,0.0103569999999999
114.59999999999997,0.0068969999999999
114.8,0.0053309999999999
115.00000000000006,0.003471
115.2,0.0019259999999998
115.40000000000003,0.0016309999999999
115.59999999999997,0.0014319999999998
115.8,0.001703
116.00000000000006,-0.0003219999999999
116.2,-0.000604
116.40000000000003,-0.001068
116.59999999999997,-0.001686
116.8,-0.002998
117.00000000000006,-0.00025
117.2,0.0036229999999999
117.40000000000003,0.0066569999999999
117.59999999999997,0.010083
117.8,0.0115229999999999
118.00000000000006,0.0127329999999998
118.2,0.0134529999999999
118.40000000000003,0.0141469999999999
118.59999999999997,0.0122089999999999
118.8,0.0095309999999999
119.00000000000006,0.0055
119.2,-0.001071
119.40000000000003,-0.0060279999999999
119.59999999999997,-0.0056419999999999
119.8,-0.001862
120.00000000000006,0.0001539999999999
120.2,0.0020459999999999
120.40000000000003,0.0026679999999998
120.59999999999997,0.002502
120.8,0.0008999999999999
121.00000000000006,0.0007019999999999
121.2,0.0017719999999998
121.40000000000003,0.0021679999999999
121.59999999999997,2.0000000000575118e-06
121.8,-0.0009810000000001
122.00000000000006,-0.0009859999999999
122.2,0.0009649999999998
122.40000000000003,0.003376
122.59999999999997,0.0048639999999999
122.8,0.0047349999999999
123.00000000000006,0.0045349999999999
123.2,0.0033819999999999
123.40000000000003,0.003573
123.59999999999997,0.0038579999999999
123.8,0.0033289999999999
124.00000000000006,0.0024819999999998
124.2,0.0009419999999999
124.40000000000003,-0.0014830000000001
124.59999999999997,-0.0033400000000001
124.8,-0.0027239999999999
125.00000000000006,-0.000137
125.2,0.0026619999999999
125.40000000000003,0.004566
125.59999999999997,0.007163
125.8,0.00997
126.00000000000006,0.0104569999999999
126.2,0.0085589999999999
126.40000000000003,0.0089369999999999
126.59999999999997,0.0092449999999999
126.8,0.005911
127.00000000000006,0.0013969999999998
127.2,-0.000218
127.40000000000003,-0.0019299999999999
127.59999999999997,-0.0042090000000001
127.8,-0.005422
128.00000000000006,-0.005468
128.2,-0.004607
128.40000000000003,-0.0023379999999999
128.59999999999997,0.0022249999999999
128.8,0.0066979999999998
129.00000000000006,0.010566
129.2,0.0118099999999998
129.40000000000003,0.0095479999999998
129.59999999999997,0.003427
129.8,-0.001471
130.00000000000006,-0.004685
130.2,-0.006404
130.40000000000003,-0.005946
130.59999999999997,-0.0045729999999999
130.8,-0.0041109999999999
131.00000000000006,-0.003732
131.2,-0.0013449999999999
131.40000000000003,0.0006049999999999
131.59999999999997,0.0029099999999999
131.8,0.003751
132.00000000000006,0.0043709999999999
132.2,0.003373
132.40000000000003,0.0012229999999999
132.59999999999997,-0.0004520000000001
132.8,-0.001487
133.00000000000006,-0.0027449999999999
133.2,-0.0052849999999999
133.40000000000003,-0.004726
133.59999999999997,-0.0037009999999999
133.8,-0.001376
134.00000000000006,0.0001359999999999
134.2,0.002518
134.40000000000003,0.0042679999999999
134.59999999999997,0.005279
134.8,0.006048
135.00000000000006,0.0069239999999999
135.2,0.0058149999999999
135.40000000000003,0.0036359999999999
135.59999999999997,0.0025519999999998
135.8,0.0028259999999999
136.00000000000006,0.000968
136.2,-0.000197
136.40000000000003,-0.00096
136.59999999999997,0.000296
136.8,-9.1999999999981e-05
137.00000000000006,0.002035
137.2,0.005662
137.40000000000003,0.0087939999999999
137.59999999999997,0.0103029999999999
137.8,0.011751
138.00000000000006,0.013438
138.2,0.012588
138.40000000000003,0.010736
138.59999999999997,0.0071779999999999
138.8,0.0053399999999999
139.00000000000006,0.0041759999999999
139.2,0.0036789999999999
139.40000000000003,0.001889
139.59999999999997,0.003514
139.8,0.0055359999999999
140.00000000000006,0.006469
140.2,0.0061249999999999
140.40000000000003,0.006574
140.59999999999997,0.0043469999999998
140.8,0.0016199999999999
141.00000000000006,-0.0002550000000001
141.2,-0.00052
141.40000000000003,-0.002042
141.59999999999997,-0.0015069999999999
141.8,-0.0037340000000001
142.00000000000006,-0.0054579999999999
142.2,-0.0045509999999999
142.40000000000003,-0.0023409999999999
142.59999999999997,-0.004045
142.8,-0.0033909999999999
143.00000000000006,-0.00187
143.2,0.000566
143.40000000000003,0.003765
143.59999999999997,0.0081229999999998
143.8,0.0115529999999999
144.00000000000006,0.0124649999999999
144.2,0.0122139999999999
144.40000000000003,0.0103169999999999
144.59999999999997,0.010167
144.8,0.0079119999999999
145.00000000000006,0.004631
145.2,0.001317
145.40000000000003,-0.0001519999999999
145.59999999999997,0.000356
145.8,0.001182
146.00000000000006,0.002051
146.2,0.000307
146.40000000000003,-7.500000000004725e-05
146.59999999999997,-0.003203
146.8,-0.0050540000000001
147.00000000000006,-0.004018
147.2,-0.0011849999999999
147.40000000000003,0.0016009999999999
147.59999999999997,0.0049259999999999
147.8,0.0080259999999998
148.00000000000006,0.0062899999999999
148.2,0.003784
148.40000000000003,2.199999999996649e-05
148.59999999999997,-0.0024159999999999
148.8,-0.0038579999999999
149.00000000000006,-0.0023779999999999
149.2,6.799999999995698e-05
149.40000000000003,0.0014579999999999
149.59999999999997,0.0004249999999998
149.8,0.0002119999999998
150.00000000000006,0.0001089999999999
150.2,-0.0015370000000001
150.40000000000003,-0.000922
150.59999999999997,0.000518
150.8,0.0007569999999998
151.00000000000006,-0.000321
151.2,-0.0012769999999999
151.40000000000003,-0.002523
151.59999999999997,-0.0034359999999999
151.8,-0.005225
152.00000000000006,-0.006979
152.2,-0.0074449999999999
152.40000000000003,-0.0069969999999999
152.59999999999997,-0.004753
152.8,-0.000887
153.00000000000006,0.0051039999999999
153.2,0.0093069999999999
153.40000000000003,0.0104659999999998
153.59999999999997,0.0088699999999999
153.8,0.0100769999999998
154.00000000000006,0.0077499999999999
154.2,0.0054779999999998
154.40000000000003,0.0037339999999999
154.59999999999997,0.0030349999999998
154.8,-0.0011369999999999
155.00000000000006,-0.001694
155.2,-0.000944
155.40000000000003,0.0009799999999999
155.59999999999997,0.0027289999999999
155.8,0.00373
156.00000000000006,0.0036149999999999
156.2,0.0039989999999998
156.40000000000003,0.0038959999999998
156.59999999999997,0.0038819999999999
156.8,0.0037309999999999
157.00000000000006,0.0043969999999999
157.2,0.004736
157.40000000000003,0.0048189999999999
157.59999999999997,0.004283
157.8,0.004515
158.00000000000006,0.0028449999999999
158.2,-0.001829
158.40000000000003,-0.0021809999999999
158.59999999999997,-0.0021569999999999
158.8,-0.00116
159.00000000000006,3.2999999999949736e-05
159.2,0.004396
159.40000000000003,0.0052909999999999
159.59999999999997,0.0053959999999999
159.8,0.004302
160.00000000000006,0.004852
160.2,0.004323
160.40000000000003,0.0032579999999999
160.59999999999997,0.001041
160.8,-0.001581
161.00000000000006,-0.0034830000000001
161.2,-0.0045889999999999
161.40000000000003,-0.004488
161.59999999999997,-0.002809
161.8,-0.0005209999999999
162.00000000000006,0.000415
162.2,0.0004249999999998
162.40000000000003,0.000731
162.59999999999997,0.0012369999999999
162.8,0.0018709999999999
163.00000000000006,0.0027749999999999
163.2,0.0035819999999999
163.40000000000003,0.003004
163.59999999999997,0.0012969999999998
163.8,0.000197
164.00000000000006,0.0004789999999998
164.2,0.001551
164.40000000000003,0.0012739999999999
164.59999999999997,0.0024519999999998
164.8,0.0028459999999999
165.00000000000006,0.0037789999999999
165.2,0.003417
165.40000000000003,0.0039819999999999
165.59999999999997,0.006318
165.8,0.0100489999999999
166.00000000000006,0.0084269999999999
166.2,0.0070509999999999
166.40000000000003,0.0066249999999998
166.59999999999997,0.004699
166.8,0.0026429999999999
167.00000000000006,0.0054779999999998
167.2,0.0088699999999999
167.40000000000003,0.008871
167.59999999999997,0.0084919999999999
167.8,0.008359
168.00000000000006,0.0076979999999999
168.2,0.007452
168.40000000000003,0.0086629999999998
168.59999999999997,0.0093769999999999
168.8,0.0101549999999999
169.00000000000006,0.008121
169.2,0.0055749999999998
169.40000000000003,0.003236
169.59999999999997,0.0017339999999999
169.8,-0.0006159999999999
170.00000000000006,0.0011849999999999
170.2,0.0017099999999998
170.40000000000003,0.003659
170.59999999999997,0.005133
170.8,0.0060819999999999
171.00000000000006,0.002399
171.2,-2.100000000004876e-05
171.40000000000003,-0.000771
171.59999999999997,9.799999999993148e-05
171.8,0.000145
172.00000000000006,0.0017
172.2,0.004504
172.40000000000003,0.0048109999999998
172.59999999999997,0.0024189999999999
172.8,0.000213
173.00000000000006,-0.0011099999999999
173.2,-0.0043980000000001
173.40000000000003,-0.008359
173.59999999999997,-0.0088479999999999
173.8,-0.0064299999999999
174.00000000000006,-0.004061
174.2,-0.0020310000000001
174.40000000000003,-0.000142
174.59999999999997,0.0002189999999999
174.8,-0.0001809999999999
175.00000000000006,4.599999999999049e-05
175.2,0.0011129999999999
175.40000000000003,0.0033159999999998
175.59999999999997,0.0051889999999998
175.8,0.0042979999999999
176.00000000000006,0.0014509999999998
176.2,0.0008939999999999
176.40000000000003,0.000747
176.59999999999997,-0.0013819999999999
176.8,-0.0019029999999999
177.00000000000006,-0.000493
177.2,0.0022439999999999
177.40000000000003,0.005344
177.59999999999997,0.0064519999999999
177.8,0.0062309999999998
178.00000000000006,0.005614
178.2,0.0028319999999999
178.40000000000003,-0.0036020000000001
178.59999999999997,-0.007465
178.8,-0.008672
179.00000000000006,-0.010415
179.2,-0.0137880000000001
179.40000000000003,-0.0139029999999999
179.59999999999997,-0.011389
179.8,-0.0088779999999999
180.00000000000006,-0.006089
180.2,-0.002836
180.40000000000003,0.0005109999999999
180.6,0.0039299999999999
180.8,0.0032309999999999
181.00000000000009,0.001767
181.2,0.000982
181.40000000000003,0.0009559999999999
181.6,8.699999999994823e-05
181.8,0.0008919999999998
182.00000000000009,-0.0005859999999999
182.2,-0.002097
182.40000000000003,-0.0044680000000001
182.6,-0.0067399999999999
182.8,-0.0087019999999999
183.00000000000009,-0.0077469999999999
183.2,-0.0054549999999999
183.40000000000003,-0.0042139999999999
183.6,-0.003913
183.8,-0.0015370000000001
184.00000000000009,0.0003389999999998
184.2,-0.0001109999999999
184.40000000000003,-0.001033
184.6,-0.001678
184.8,-0.002251
185.00000000000009,-0.0019869999999999
185.2,-0.000377
185.40000000000003,0.0010129999999999
185.6,0.0
185.8,-0.0025649999999999
186.00000000000009,-0.003389
186.2,-0.003309
186.40000000000003,-0.0008079999999999
186.6,0.0015689999999999
186.8,0.002299
187.00000000000009,0.0017359999999999
187.2,-0.001435
187.40000000000003,-0.003235
187.6,-0.0024379999999999
187.8,0.000375
188.00000000000009,0.0024469999999998
188.2,0.0048619999999999
188.40000000000003,0.006132
188.6,0.0044629999999998
188.8,0.004099
189.00000000000009,0.0026889999999999
189.2,0.0030499999999999
189.40000000000003,0.0017759999999999
189.6,0.0012479999999999
189.8,-0.000849
190.00000000000009,-0.0034529999999999
190.2,-0.006059
190.40000000000003,-0.0075709999999999
190.6,-0.0055400000000001
190.8,-0.0047509999999999
191.00000000000009,-0.002129
191.2,9.299999999989872e-05
191.40000000000003,0.0017169999999999
191.6,0.0002659999999998
191.8,-0.0034860000000001
192.00000000000009,-0.006267
192.2,-0.0080599999999999
192.40000000000003,-0.0073639999999999
192.6,-0.005416
192.8,-0.000329
193.00000000000009,0.002537
193.2,0.0037499999999999
193.40000000000003,0.002248
193.6,0.002253
193.8,0.002002
194.00000000000009,0.0036559999999998
194.2,0.005136
194.40000000000003,0.0068999999999999
194.6,0.005392
194.8,0.003848
195.00000000000009,0.001546
195.2,-0.0010019999999999
195.40000000000003,-0.002599
195.6,-0.004061
195.8,-0.0041629999999999
196.00000000000009,-0.0027049999999999
196.2,0.000286
196.40000000000003,0.0024779999999999
196.6,0.004758
196.8,0.00583
197.00000000000009,0.0052539999999998
197.2,0.004439
197.40000000000003,0.0042759999999999
197.6,0.006191
197.8,0.0071049999999999
198.00000000000009,0.008132
198.2,0.007916
198.40000000000003,0.0062199999999998
198.6,0.0027639999999999
198.8,-0.0007730000000001
199.00000000000009,-0.0038949999999999
199.2,-0.0044669999999999
199.40000000000003,-0.003689
199.6,-0.0021809999999999
199.8,0.0024779999999999
200.00000000000009,0.0054009999999999
200.2,0.0068139999999998
200.40000000000003,0.0071509999999999
200.6,0.0088909999999999
200.8,0.0074579999999999
201.00000000000009,0.0065239999999999
201.2,0.0025599999999998
201.40000000000003,-0.0008179999999999
201.6,-0.003913
201.8,-0.004135
202.00000000000009,-0.0042889999999999
202.2,-0.0003649999999999
202.40000000000003,0.001816
202.6,0.002707
202.8,0.0032809999999998
203.00000000000009,0.003716
203.2,0.003082
203.40000000000003,0.0029729999999998
203.6,0.0006869999999998
203.8,-0.0012849999999999
204.00000000000009,-0.001252
204.2,-0.000674
204.40000000000003,0.001155
204.6,0.0041659999999998
204.8,0.0047019999999999
205.00000000000009,0.003452
205.2,0.0033509999999998
205.40000000000003,0.0035369999999999
205.6,0.005044
205.8,0.0049259999999999
206.00000000000009,0.0034829999999999
206.2,0.000669
206.40000000000003,-0.0033579999999999
206.6,-0.0064870000000001
206.8,-0.0066680000000001
207.00000000000009,-0.006134
207.2,-0.005192
207.40000000000003,-0.003541
207.6,-0.0013240000000001
207.8,0.000572
208.00000000000009,0.0048969999999999
208.2,0.0076909999999998
208.40000000000003,0.0097689999999999
208.6,0.009649
208.8,0.009203
209.00000000000009,0.0052179999999999
209.2,0.0013659999999999
209.40000000000003,-0.001085
209.6,-0.002842
209.8,-0.002731
210.00000000000009,-0.00116
210.2,0.000358
210.40000000000003,0.002456
210.6,0.0046189999999999
210.8,0.003249
211.00000000000009,0.0017139999999999
211.2,0.0007919999999999
211.40000000000003,-0.0009239999999999
211.6,-0.0018029999999999
211.8,-0.000226
212.00000000000009,0.00126
212.2,0.0017549999999999
212.40000000000003,0.00251
212.6,0.0023079999999999
212.8,0.000145
213.00000000000009,-0.0015579999999999
213.2,-0.002472
213.40000000000003,-0.0035990000000001
213.6,-0.0051540000000001
213.8,-0.003184
214.00000000000009,0.000434
214.2,0.0033779999999998
214.40000000000003,0.005079
214.6,0.004831
214.8,0.0036629999999999
215.00000000000009,0.0030799999999999
215.2,0.000917
215.40000000000003,-0.001432
215.6,-0.0011879999999999
215.8,-0.000447
216.00000000000009,-0.001049
216.2,0.000512
216.40000000000003,0.002904
216.6,0.0047109999999999
216.8,0.0053159999999998
217.00000000000009,0.004952
217.2,0.003139
217.40000000000003,4.199999999987547e-05
217.6,-0.001754
217.8,-0.0037549999999999
218.00000000000009,-0.0040740000000001
218.2,-0.0034549999999999
218.40000000000003,-0.0013039999999999
218.6,-0.001613
218.8,-0.002099
219.00000000000009,-0.0042170000000001
219.2,-0.0064889999999999
219.40000000000003,-0.008952
219.6,-0.009449
219.8,-0.0085919999999999
220.00000000000009,-0.0072479999999999
220.2,-0.0071829999999999
220.40000000000003,-0.006285
220.6,-0.00489
220.8,-0.0045170000000001
221.00000000000009,-0.0055640000000001
221.2,-0.006472
221.40000000000003,-0.008197
221.6,-0.010507
221.8,-0.011387
222.00000000000009,-0.0097720000000001
222.2,-0.006709
222.40000000000003,-0.004537
222.6,-0.002812
222.8,-0.002852
223.00000000000009,-0.00373
223.2,-0.004245
223.40000000000003,-0.0029920000000001
223.6,-0.0023569999999999
223.8,-0.0014
224.00000000000009,6.599999999989947e-05
224.2,0.000183
224.40000000000003,-0.0002360000000001
224.6,-0.001155
224.8,-0.001845
225.00000000000009,-0.0037420000000001
225.2,-0.0034449999999999
225.40000000000003,-0.0030000000000001
225.6,-0.0015959999999999
225.8,-0.000231
226.00000000000009,0.001036
226.2,0.0001709999999999
226.40000000000003,-0.000223
226.6,0.0004429999999999
226.8,0.0003589999999999
227.00000000000009,-0.0009650000000001
227.2,-0.0017100000000001
227.40000000000003,-0.002915
227.6,-0.0050810000000001
227.8,-0.0059340000000001
228.00000000000009,-0.0024779999999999
228.2,0.0014879999999999
228.40000000000003,0.0046629999999998
228.6,0.0054159999999998
228.8,0.0054309999999999
229.00000000000009,0.0038
229.2,0.001546
229.40000000000003,-0.0020759999999999
229.6,-0.003006
229.8,-0.0050909999999999
230.00000000000009,-0.0075439999999999
230.2,-0.0088479999999999
230.40000000000003,-0.009004
230.6,-0.0074309999999999
230.8,-0.00523
231.00000000000009,-0.0017359999999999
231.2,0.0012309999999999
231.40000000000003,0.0039169999999999
231.6,0.0039839999999999
231.8,0.0043629999999998
232.00000000000009,0.0027619999999999
232.2,0.001368
232.40000000000003,0.0010319999999999
232.6,-0.0004779999999999
232.8,-0.0012179999999999
233.00000000000009,-0.0013579999999999
233.2,-0.0028099999999999
233.40000000000003,-0.006388
233.6,-0.007619
233.8,-0.0083710000000001
234.00000000000009,-0.0084170000000001
234.2,-0.006491
234.40000000000003,-0.003843
234.6,-0.001513
234.8,-0.0016009999999999
235.00000000000009,-0.0021379999999999
235.2,-0.0033339999999999
235.40000000000003,-0.0015210000000001
235.6,-0.0004440000000001
235.8,0.001619
236.00000000000009,0.0027809999999999
236.2,0.004118
236.40000000000003,0.0028909999999999
236.6,0.001533
236.8,-0.000331
237.00000000000009,0.0014279999999999
237.2,0.0028179999999999
237.40000000000003,0.0039599999999999
237.6,0.002161
237.8,0.002237
238.00000000000009,-0.0002249999999999
238.2,-0.0020869999999999
238.40000000000003,-0.0038260000000001
238.6,-0.0026639999999999
238.8,-0.0036329999999999
239.00000000000009,-0.0061599999999999
239.2,-0.00868
239.40000000000003,-0.0093
239.6,-0.008458
239.8,-0.006898
240.00000000000009,-0.003265
240.2,-0.001281
240.40000000000003,0.0002199999999998
240.6,0.0001009999999999
240.8,-0.0009270000000001
241.00000000000009,-0.002232
241.2,-0.0027239999999999
241.40000000000003,-0.0047410000000001
241.6,-0.0059329999999999
241.8,-0.005668
242.00000000000009,-0.006688
242.2,-0.0063919999999999
242.40000000000003,-0.0038279999999999
242.6,-0.001125
242.8,5.199999999994098e-05
243.00000000000009,0.0006779999999999
243.2,-0.0007680000000001
243.40000000000003,-0.00417
243.6,-0.0061930000000001
243.8,-0.004976
244.00000000000009,-0.0034290000000001
244.2,-0.0011369999999999
244.40000000000003,0.000426
244.6,0.0018169999999999
244.8,0.002267
245.00000000000009,0.0023089999999998
245.2,0.0024539999999999
245.40000000000003,0.0035739999999999
245.6,0.0028569999999998
245.8,0.0009639999999999
246.00000000000009,-8.200000000013752e-05
246.2,-0.0006079999999999
246.40000000000003,-0.0014389999999999
246.6,-0.0010449999999999
246.8,-0.001039
247.00000000000009,-0.0008190000000001
247.2,0.0019959999999998
247.40000000000003,0.0046459999999999
247.6,0.006585
247.8,0.00801
248.00000000000009,0.0086649999999999
248.2,0.0047679999999998
248.40000000000003,0.0016799999999999
248.6,-0.001729
248.8,-0.003865
249.00000000000009,-0.0058610000000001
249.2,-0.0071259999999999
249.40000000000003,-0.008928
249.6,-0.010782
249.8,-0.010971
250.00000000000009,-0.0100329999999999
250.2,-0.0078139999999999
250.40000000000003,-0.003362
250.6,0.0001219999999999
250.8,0.000852
251.00000000000009,0.0003929999999998
251.2,-0.0017260000000001
251.40000000000003,-0.0044399999999999
251.6,-0.006234
251.8,-0.007519
252.00000000000009,-0.0069069999999999
252.2,-0.004234
252.40000000000003,-0.002957
252.6,-0.0030099999999999
252.8,-0.0042010000000001
253.00000000000009,-0.0067570000000001
253.2,-0.0079979999999999
253.40000000000003,-0.0076249999999999
253.6,-0.007365
253.8,-0.006134
254.00000000000009,-0.0037709999999999
254.2,-0.0012769999999999
254.40000000000003,-0.000669
254.6,-0.000207
254.8,-0.0008540000000001
255.00000000000009,-0.001276
255.2,-0.002771
255.40000000000003,-0.003152
255.6,-0.0012529999999999
255.8,0.0013499999999999
256.00000000000006,0.0015309999999999
256.2,0.0001579999999998
256.40000000000003,-0.000601
256.6,-0.0020040000000001
256.8,-0.0040580000000001
257.00000000000006,-0.0036499999999999
257.2,-0.002177
257.40000000000003,-0.000375
257.6,-5.800000000011352e-05
257.8,0.0024599999999999
258.00000000000006,0.0031669999999999
258.2,0.0018629999999999
258.40000000000003,-0.0021619999999999
258.6,-0.00459
258.8,-0.0052879999999999
259.00000000000006,-0.0043280000000001
259.2,-0.0024699999999999
259.40000000000003,-0.000704
259.6,1.6999999999933735e-05
259.8,-0.001972
260.00000000000006,-0.0047049999999999
260.2,-0.005519
260.40000000000003,-0.0061599999999999
260.6,-0.0040409999999999
260.8,-0.0028270000000001
261.00000000000006,-0.0021999999999999
261.2,-0.0027570000000001
261.40000000000003,-0.0014959999999999
261.6,0.0003649999999999
261.8,0.001848
262.00000000000006,0.003279
262.2,0.003605
262.40000000000003,0.0033849999999999
262.6,0.0035789999999999
262.8,0.0072189999999998
263.00000000000006,0.0113799999999999
263.2,0.0152399999999999
263.40000000000003,0.016521
263.6,0.0136289999999998
263.8,0.0081819999999999
264.00000000000006,0.0018449999999998
264.2,-0.0047509999999999
264.40000000000003,-0.0089840000000001
264.6,-0.0099089999999999
264.8,-0.0084520000000001
265.00000000000006,-0.007789
265.2,-0.0051909999999999
265.40000000000003,-0.002269
265.6,-0.0029799999999999
265.8,-0.007006
266.00000000000006,-0.007678
266.2,-0.0084649999999999
266.40000000000003,-0.0093149999999999
266.6,-0.008987
266.8,-0.007546
267.00000000000006,-0.00669
267.2,-0.0057789999999999
267.40000000000003,-0.0052510000000001
267.6,-0.005006
267.8,-0.0025109999999999
268.00000000000006,-0.0012609999999999
268.2,-0.000752
268.40000000000003,0.0005629999999998
268.6,0.0018369999999998
268.8,0.0007079999999999
269.00000000000006,-0.002037
269.2,-0.0027619999999999
269.40000000000003,-0.0024859999999999
269.6,-0.001416
269.8,-0.0010989999999999
270.00000000000006,-0.001702
270.2,-0.001068
270.40000000000003,-6.799999999995698e-05
270.6,0.0007839999999998
270.8,0.001611
271.00000000000006,0.0033549999999999
271.2,0.002618
271.40000000000003,0.0014089999999999
271.6,0.00038
271.8,-0.0019379999999999
272.00000000000006,-0.004609
272.2,-0.0052289999999999
272.40000000000003,-0.006745
272.6,-0.0083170000000001
272.8,-0.0059310000000001
273.00000000000006,-0.001398
273.2,0.000237
273.40000000000003,0.000118
273.6,-0.000288
273.8,-0.0014279999999999
274.00000000000006,-0.0018789999999999
274.2,-0.002089
274.40000000000003,-0.0003589999999999
274.6,0.0009799999999999
274.8,0.001916
275.00000000000006,-0.0007099999999999
275.2,-0.0028829999999999
275.40000000000003,-0.005227
275.6,-0.0059359999999999
275.8,-0.0053780000000001
276.00000000000006,-0.0018789999999999
276.2,0.000464
276.40000000000003,0.0016229999999999
276.6,0.0013429999999998
276.8,-0.0018340000000001
277.00000000000006,-0.003865
277.2,-0.0059029999999999
277.40000000000003,-0.005381
277.6,-0.0036849999999999
277.8,-0.0012510000000001
278.00000000000006,-0.0020139999999999
278.2,-0.002437
278.40000000000003,-0.0046429999999999
278.6,-0.006556
278.8,-0.0068559999999999
279.00000000000006,-0.00804
279.2,-0.0099119999999999
279.40000000000003,-0.0122280000000001
279.6,-0.014151
279.8,-0.0168479999999999
280.00000000000006,-0.0173
280.2,-0.0163360000000001
280.40000000000003,-0.013721
280.6,-0.011335
280.8,-0.008736
281.00000000000006,-0.005465
281.2,-0.00337
281.40000000000003,-0.002283
281.6,-0.002917
281.8,-0.003184
282.00000000000006,-0.0015819999999999
282.2,0.0006049999999999
282.40000000000003,5.3999999999998494e-05
282.6,-0.000191
282.8,-0.0005429999999999
283.00000000000006,-0.002877
283.2,-0.0056450000000001
283.40000000000003,-0.008477
283.6,-0.0101729999999999
283.8,-0.009821
284.00000000000006,-0.008358
284.2,-0.004825
284.40000000000003,-0.0003980000000001
284.6,0.0005269999999999
284.8,-0.0005440000000001
285.00000000000006,-0.0014769999999999
285.2,-0.003371
285.40000000000003,-0.0055400000000001
285.6,-0.0020500000000001
285.8,0.0009999999999998
286.00000000000006,0.0022729999999999
286.2,0.0013589999999998
286.40000000000003,0.0031769999999999
286.6,0.000893
286.8,-0.0009970000000001
287.00000000000006,-0.002717
287.2,-0.0045760000000001
287.40000000000003,-0.005228
287.6,-0.00441
287.8,-0.0039310000000001
288.00000000000006,-0.004002
288.2,-0.0030780000000001
288.40000000000003,-0.0027369999999999
288.6,-0.000483
288.8,0.002113
289.00000000000006,0.0024029999999999
289.2,0.0018489999999999
289.40000000000003,-0.0004330000000001
289.6,-0.003389
289.8,-0.007692
290.00000000000006,-0.009333
290.2,-0.0082439999999999
290.40000000000003,-0.006302
290.6,-0.0069019999999999
290.8,-0.0065479999999999
291.00000000000006,-0.0045760000000001
291.2,-0.0041619999999999
291.40000000000003,-0.0055290000000001
291.6,-0.0052609999999999
291.8,-0.0024889999999999
292.00000000000006,-0.0015910000000001
292.2,-0.002045
292.40000000000003,-0.0035069999999999
292.6,-0.0044630000000001
292.8,-0.007112
293.00000000000006,-0.0118139999999999
293.2,-0.0136439999999999
293.40000000000003,-0.0114860000000001
293.6,-0.010013
293.8,-0.010199
294.00000000000006,-0.007911
294.2,-0.007279
294.40000000000003,-0.0074739999999999
294.6,-0.007805
294.8,-0.007395
295.00000000000006,-0.0053119999999999
295.2,-0.0022980000000001
295.40000000000003,0.0001409999999999
295.6,-0.000836
295.8,-0.0031719999999999
296.00000000000006,-0.005373
296.2,-0.0074879999999999
296.40000000000003,-0.0101740000000001
296.6,-0.010118
296.8,-0.0104060000000001
297.00000000000006,-0.012753
297.2,-0.0125710000000001
297.40000000000003,-0.0115100000000001
297.6,-0.0079739999999999
297.8,-0.0043170000000001
298.00000000000006,-0.000504
298.2,0.0009939999999999
298.40000000000003,0.0015039999999999
298.6,0.0028779999999999
298.8,0.0035819999999999
299.00000000000006,0.002809
299.2,0.0007319999999999
299.40000000000003,-0.0002219999999999
299.6,-0.001233
299.8,0.0002579999999998
299.99999999999994,-0.0032740000000001
300.1999999999999,-0.002563
300.3999999999999,-0.003034
300.6,-0.002703
300.7999999999999,-0.002989
300.99999999999994,-0.001514
301.1999999999999,-0.0027370000000001
301.3999999999999,-0.0040460000000001
301.6,-0.006178
301.7999999999999,-0.0074630000000001
301.99999999999994,-0.007613
302.1999999999999,-0.007611
302.3999999999999,-0.005939
302.6,-0.007373
302.7999999999999,-0.0059300000000001
302.99999999999994,-0.005847
303.1999999999999,-0.005013
303.3999999999999,-0.005376
303.6,-0.002414
303.7999999999999,-0.000115
303.99999999999994,0.0028359999999999
304.1999999999999,0.0039259999999999
304.3999999999999,0.0044789999999999
304.6,0.0029739999999999
304.7999999999999,0.0010929999999998
304.99999999999994,0.0002289999999999
305.1999999999999,0.0013659999999999
305.3999999999999,0.0034129999999998
305.6,0.0042849999999999
305.7999999999999,0.0059829999999999
305.99999999999994,0.0026609999999999
306.1999999999999,-0.003153
306.3999999999999,-0.008175
306.6,-0.009998
306.7999999999999,-0.011951
306.99999999999994,-0.010066
307.1999999999999,-0.005702
307.3999999999999,-0.002617
307.6,-0.002493
307.7999999999999,-0.00291
307.99999999999994,-0.002719
308.1999999999999,-0.002176
308.3999999999999,-0.0013900000000001
308.6,-0.003151
308.7999999999999,-0.0063550000000001
308.99999999999994,-0.008232
309.1999999999999,-0.00826
309.3999999999999,-0.008897
309.6,-0.005164
309.7999999999999,-0.002242
309.99999999999994,-0.002767
310.1999999999999,-0.00681
310.3999999999999,-0.006839
310.6,-0.005971
310.7999999999999,-0.004688
310.99999999999994,-0.0019920000000001
311.1999999999999,0.0022449999999999
311.3999999999999,0.0020429999999999
311.6,0.0007249999999999
311.7999999999999,0.0009569999999999
311.99999999999994,0.0012679999999999
312.1999999999999,0.0023689999999999
312.3999999999999,0.0062069999999999
312.6,0.0096269999999999
312.7999999999999,0.0108489999999998
312.99999999999994,0.0106159999999999
313.1999999999999,0.0081729999999999
313.3999999999999,0.0030909999999999
313.6,-0.002117
313.7999999999999,-0.004183
313.99999999999994,-0.003885
314.1999999999999,-0.000788
314.3999999999999,0.0002589999999998
314.6,0.0017319999999999
314.7999999999999,7.899999999994023e-05
314.99999999999994,-0.0017720000000001
315.1999999999999,-0.006317
315.3999999999999,-0.008045
315.6,-0.009617
315.7999999999999,-0.009248
315.99999999999994,-0.009381
316.1999999999999,-0.007564
316.3999999999999,-0.00515
316.6,-0.003098
316.7999999999999,-9.500000000006724e-05
316.99999999999994,0.0035309999999999
317.1999999999999,0.0067999999999999
317.3999999999999,0.0088009999999999
317.6,0.0087609999999999
317.7999999999999,0.0076239999999999
317.99999999999994,0.0056539999999999
318.1999999999999,0.0019169999999999
318.3999999999999,-0.000599
318.6,-0.002075
318.7999999999999,-0.003109
318.99999999999994,-0.004132
319.1999999999999,-0.00323
319.3999999999999,-0.001273
319.6,0.0003009999999998
319.7999999999999,-0.000612
319.99999999999994,-0.002766
320.1999999999999,-0.0064670000000001
320.3999999999999,-0.011032
320.6,-0.014751
320.7999999999999,-0.0154050000000001
320.99999999999994,-0.012863
321.1999999999999,-0.009785
321.3999999999999,-0.0070420000000001
321.6,-0.002975
321.7999999999999,-0.0019460000000001
321.99999999999994,-0.000738
322.1999999999999,0.0008509999999999
322.3999999999999,0.0014249999999998
322.6,0.0004469999999999
322.7999999999999,0.0011369999999999
322.99999999999994,-0.000757
323.1999999999999,-0.001941
323.3999999999999,-0.002624
323.6,-0.001457
323.7999999999999,0.0002239999999998
323.99999999999994,0.0018369999999999
324.1999999999999,-0.001388
324.3999999999999,-0.00424
324.6,-0.007947
324.7999999999999,-0.011931
324.99999999999994,-0.015027
325.1999999999999,-0.013553
325.3999999999999,-0.008493
325.6,-0.004327
325.7999999999999,-0.0007720000000001
325.99999999999994,0.0013909999999999
326.1999999999999,0.0030009999999999
326.3999999999999,0.0001609999999999
326.6,-0.0035020000000001
326.7999999999999,-0.005399
326.99999999999994,-0.004717
327.1999999999999,-0.0035980000000001
327.3999999999999,-0.001455
327.6,0.0026159999999999
327.7999999999999,0.0060989999999999
327.99999999999994,0.0061899999999999
328.1999999999999,0.0038589999999999
328.3999999999999,0.0020579999999998
328.6,3.899999999990023e-05
328.7999999999999,-0.002709
328.99999999999994,-0.003061
329.1999999999999,-0.002113
329.3999999999999,-0.001924
329.6,-0.0029070000000001
329.7999999999999,-0.0026410000000001
329.99999999999994,-0.003029
330.1999999999999,-0.002509
330.3999999999999,-0.000932
330.6,0.0004349999999999
330.7999999999999,0.0009049999999999
330.99999999999994,0.0011759999999999
331.1999999999999,0.0004349999999999
331.3999999999999,0.0003549999999998
331.6,-0.000665
331.7999999999999,-0.003254
331.99999999999994,-0.003222
332.1999999999999,-0.001989
332.3999999999999,-0.0014980000000001
332.6,-0.0010190000000001
332.7999999999999,0.0012109999999999
332.99999999999994,0.0026019999999999
333.1999999999999,0.0018569999999998
333.3999999999999,-0.000628
333.6,-0.001468
333.7999999999999,-0.0032510000000001
333.99999999999994,-0.006256
334.1999999999999,-0.006806
334.3999999999999,-0.002018
334.6,0.0034359999999998
334.7999999999999,0.0051169999999999
334.99999999999994,0.0059939999999999
335.1999999999999,0.0075279999999999
335.3999999999999,0.0052279999999998
335.6,0.0011169999999999
335.7999999999999,0.0001719999999999
335.99999999999994,-0.0001040000000001
336.1999999999999,-0.00119
336.3999999999999,-0.0009340000000001
336.6,9.5999999999985e-05
336.7999999999999,0.0006899999999999
336.99999999999994,-0.000235
337.1999999999999,-0.002804
337.3999999999999,-0.00643
337.6,-0.008163
337.7999999999999,-0.00612
337.99999999999994,-0.002856
338.1999999999999,-0.001103
338.3999999999999,0.0018739999999999
338.6,0.0027039999999999
338.7999999999999,-0.000639
338.99999999999994,-0.004442
339.1999999999999,-0.004904
339.3999999999999,-0.006232
339.6,-0.007437
339.7999999999999,-0.005253
339.99999999999994,-0.002653
340.1999999999999,-0.000295
340.3999999999999,-0.000276
340.6,-0.000372
340.7999999999999,-0.0013630000000001
340.99999999999994,-0.004762
341.1999999999999,-0.006333
341.3999999999999,-0.003263
341.6,0.0016329999999998
341.7999999999999,0.0068399999999999
341.99999999999994,0.0113269999999999
342.1999999999999,0.0114259999999999
342.3999999999999,0.0066579999999999
342.6,0.0020639999999999
342.7999999999999,-0.000431
342.99999999999994,0.0005589999999999
343.1999999999999,0.0024359999999998
343.3999999999999,0.0050549999999999
343.6,0.0075029999999999
343.7999999999999,0.0066999999999999
343.99999999999994,0.0052129999999999
344.1999999999999,0.0023069999999999
344.3999999999999,-2.500000000005276e-05
344.6,-0.0023010000000001
344.7999999999999,-0.003358
344.99999999999994,-0.005358
345.1999999999999,-0.005407
345.3999999999999,-0.005948
345.6,-0.006837
345.7999999999999,-0.007538
345.99999999999994,-0.006472
346.1999999999999,-0.004567
346.3999999999999,-0.0022700000000001
346.6,-0.000584
346.7999999999999,-0.000744
346.99999999999994,-0.002253
347.1999999999999,-0.006125
347.3999999999999,-0.009742
347.6,-0.012058
347.7999999999999,-0.0102310000000001
347.99999999999994,-0.007205
348.1999999999999,-0.00425
348.3999999999999,-0.002259
348.6,-0.002425
348.7999999999999,-0.004785
348.99999999999994,-0.008142
349.1999999999999,-0.009541
349.3999999999999,-0.0112700000000001
349.6,-0.0106020000000001
349.7999999999999,-0.0104130000000001
349.99999999999994,-0.010251
350.1999999999999,-0.009762
350.3999999999999,-0.007159
350.6,-0.00789
350.7999999999999,-0.009115
350.99999999999994,-0.007129
351.1999999999999,-0.004779
351.3999999999999,-0.002786
351.6,-0.000229
351.7999999999999,0.0020939999999999
351.99999999999994,0.0031289999999999
352.1999999999999,0.0034449999999999
352.3999999999999,0.0013539999999999
352.6,-0.000246
352.7999999999999,-0.001869
352.99999999999994,-0.003653
353.1999999999999,-0.005881
353.3999999999999,-0.0069030000000001
353.6,-0.005033
353.7999999999999,-0.003096
353.99999999999994,-0.003206
354.1999999999999,-0.00189
354.3999999999999,0.0014669999999998
354.6,0.0019499999999998
354.7999999999999,0.0033219999999999
354.99999999999994,0.0049259999999999
355.1999999999999,0.0064989999999999
355.3999999999999,0.0039209999999999
355.6,0.0043319999999998
355.7999999999999,0.0025309999999999
355.99999999999994,0.0032299999999999
356.1999999999999,0.0015729999999999
356.3999999999999,0.0010269999999998
356.6,-0.0022200000000001
356.7999999999999,-0.0018650000000001
356.99999999999994,-0.0025520000000001
357.1999999999999,-0.003318
357.3999999999999,-0.002319
357.6,-0.000984
357.7999999999999,-0.00267
357.99999999999994,-0.0039690000000001
358.1999999999999,-0.0057490000000001
358.3999999999999,-0.010298
358.6,-0.0149
358.7999999999999,-0.0187100000000001
358.99999999999994,-0.020757
359.1999999999999,-0.02167
359.3999999999999,-0.017838
359.6,-0.0130500000000001
359.7999999999999,-0.010037
359.99999999999994,-0.011377
360.1999999999999,-0.013402
360.3999999999999,-0.014973
360.6,-0.0154590000000001
360.7999999999999,-0.011393
361.0,-0.00764
361.1999999999999,-0.003912
361.3999999999999,-0.00092
361.6,-0.001684
361.7999999999999,-0.005632
362.0,-0.005832
362.1999999999999,-0.002805
362.3999999999999,-0.002549
362.6,-0.002128
362.7999999999999,-0.001708
363.0,-0.001175
363.1999999999999,-0.003882
363.3999999999999,-0.006264
363.6,-0.007111
363.7999999999999,-0.008744
364.0,-0.011308
364.1999999999999,-0.010952
364.3999999999999,-0.008058
364.6,-0.004801
364.7999999999999,-0.001288
365.0,-0.000265
365.1999999999999,-0.000113
365.3999999999999,-0.001491
365.6,-0.004694
365.7999999999999,-0.006639
366.0,-0.0051310000000001
366.1999999999999,-0.004003
366.3999999999999,-0.001427
366.6,0.0006439999999999
366.7999999999999,0.0020569999999999
367.0,0.0011679999999999
367.1999999999999,5.599999999994498e-05
367.3999999999999,-0.003179
367.6,-0.003672
367.7999999999999,-0.006053
368.0,-0.007295
368.1999999999999,-0.008361
368.3999999999999,-0.008779
368.6,-0.008949
368.7999999999999,-0.006735
369.0,-0.005048
369.1999999999999,-0.00574
369.3999999999999,-0.007991
369.6,-0.009798
369.7999999999999,-0.010858
370.0,-0.011366
370.1999999999999,-0.012093
370.3999999999999,-0.011466
370.6,-0.012086
370.7999999999999,-0.0117680000000001
371.0,-0.010827
371.1999999999999,-0.006393
371.3999999999999,-0.0003630000000001
371.6,0.0055569999999999
371.7999999999999,0.0070139999999999
372.0,0.0058729999999999
372.1999999999999,0.0026829999999999
372.3999999999999,-0.003385
372.6,-0.007701
372.7999999999999,-0.010271
373.0,-0.009007
373.1999999999999,-0.005334
373.3999999999999,-0.001213
373.6,-0.001132
373.7999999999999,6.099999999997774e-05
374.0,0.0008959999999998
374.1999999999999,-0.000192
374.3999999999999,-0.0039420000000001
374.6,-0.0056910000000001
374.7999999999999,-0.006742
375.0,-0.008551
375.1999999999999,-0.010171
375.3999999999999,-0.0088
375.6,-0.007285
375.7999999999999,-0.005955
376.0,-0.006842
376.1999999999999,-0.0074980000000001
376.3999999999999,-0.009005
376.6,-0.009128
376.7999999999999,-0.008453
377.0,-0.007146
377.1999999999999,-0.0069300000000001
377.3999999999999,-0.0028800000000001
377.6,-0.00067
377.7999999999999,9.099999999995224e-05
378.0,-0.000101
378.1999999999999,-0.000585
378.3999999999999,-0.002638
378.6,-0.003787
378.7999999999999,-0.005098
379.0,-0.0071580000000001
379.1999999999999,-0.007327
379.3999999999999,-0.010136
379.6,-0.011384
379.7999999999999,-0.011935
380.0,-0.010793
380.1999999999999,-0.011174
380.3999999999999,-0.007972
380.6,-0.005777
380.7999999999999,-0.004128
381.0,-0.00146
381.1999999999999,0.0022159999999998
381.3999999999999,0.0011879999999999
381.6,-0.001644
381.7999999999999,-0.003645
382.0,-0.006837
382.1999999999999,-0.0111810000000001
382.3999999999999,-0.011236
382.6,-0.01055
382.7999999999999,-0.0112970000000001
383.0,-0.010064
383.1999999999999,-0.005945
383.3999999999999,-0.0039
383.6,-0.000315
383.7999999999999,0.0037259999999998
384.0,0.0058619999999999
384.1999999999999,0.0052969999999998
384.3999999999999,0.0038529999999998
384.6,0.0014399999999998
384.7999999999999,-0.00199
385.0,-0.005616
385.1999999999999,-0.008972
385.3999999999999,-0.0100810000000001
385.6,-0.010451
385.7999999999999,-0.009314
386.0,-0.009941
386.1999999999999,-0.008936
386.3999999999999,-0.0069110000000001
386.6,-0.005958
386.7999999999999,-0.004711
387.0,0.0004089999999999
387.1999999999999,0.0043719999999999
387.3999999999999,0.0060709999999999
387.6,0.0060409999999999
387.7999999999999,0.0032989999999999
388.0,0.0007339999999999
388.1999999999999,9.999999999177334e-07
388.3999999999999,-0.001796
388.6,-0.003805
388.7999999999999,-0.003152
389.0,-0.002523
389.1999999999999,-0.004805
389.3999999999999,-0.004564
389.6,-0.0041040000000001
389.7999999999999,-0.00397
390.0,-0.006442
390.1999999999999,-0.006399
390.3999999999999,-0.007556
390.6,-0.007229
390.7999999999999,-0.006751
391.0,-0.0058610000000001
391.1999999999999,-0.00487
391.3999999999999,-0.003657
391.6,-0.0027720000000001
391.7999999999999,-0.001921
392.0,-0.001572
392.1999999999999,-0.0022510000000001
392.3999999999999,-0.00238
392.6,-0.003396
392.7999999999999,-0.005985
393.0,-0.006847
393.1999999999999,-0.006352
393.3999999999999,-0.0062890000000001
393.6,-0.0052700000000001
393.7999999999999,-0.001334
394.0,-0.00042
394.1999999999999,-0.000574
394.3999999999999,0.0009779999999999
394.6,0.0018689999999998
394.7999999999999,-0.000878
395.0,-0.000786
395.1999999999999,0.0001239999999999
395.3999999999999,1.0999999999983244e-05
395.6,0.0001469999999998
395.7999999999999,0.0007139999999999
396.0,-0.001453
396.1999999999999,-0.004587
396.3999999999999,-0.008005
396.6,-0.010653
396.7999999999999,-0.011159
397.0,-0.01061
397.1999999999999,-0.011281
397.3999999999999,-0.012068
397.6,-0.010924
397.7999999999999,-0.01075
398.0,-0.010329
398.1999999999999,-0.00959
398.3999999999999,-0.009642
398.6,-0.011608
398.7999999999999,-0.013962
399.0,-0.015172
399.1999999999999,-0.013592
399.3999999999999,-0.011742
399.6,-0.009415
399.7999999999999,-0.007106
400.0,-0.006531
400.1999999999999,-0.0078300000000001
400.3999999999999,-0.008133
400.6,-0.006314
400.7999999999999,-0.0048800000000001
401.0,-0.001371
401.1999999999999,0.0019139999999999
401.3999999999999,0.0037009999999999
401.6,0.0015749999999999
401.7999999999999,-0.000612
402.0,-0.004448
402.1999999999999,-0.008932
402.3999999999999,-0.012274
402.6,-0.01474
402.7999999999999,-0.0158530000000001
403.0,-0.013948
403.1999999999999,-0.009305
403.3999999999999,-0.004771
403.6,-0.001464
403.7999999999999,0.0003259999999999
404.0,0.0016089999999999
404.1999999999999,-0.0005330000000001
404.3999999999999,-0.0031310000000001
404.6,-0.002878
404.7999999999999,-0.001346
405.0,0.0007099999999999
405.1999999999999,0.0015769999999999
405.3999999999999,0.0018279999999999
405.6,-0.001701
405.7999999999999,-0.0031390000000001
406.0,-0.005703
406.1999999999999,-0.006215
406.3999999999999,-0.006155
406.6,-0.0045830000000001
406.7999999999999,-0.0048030000000001
407.0,-0.006708
407.1999999999999,-0.010078
407.3999999999999,-0.013448
407.6,-0.014361
407.7999999999999,-0.0151230000000001
408.0,-0.0158490000000001
408.1999999999999,-0.013132
408.3999999999999,-0.0111730000000001
408.6,-0.0087910000000001
408.7999999999999,-0.007013
409.0,-0.002864
409.1999999999999,-0.0030310000000001
409.3999999999999,-0.004219
409.6,-0.008774
409.7999999999999,-0.009954
410.0,-0.013836
410.1999999999999,-0.016059
410.3999999999999,-0.016062
410.6,-0.010858
410.7999999999999,-0.008993
411.0,-0.007227
411.1999999999999,-0.006333
411.3999999999999,-0.005705
411.6,-0.007964
411.7999999999999,-0.010738
412.0,-0.0130150000000001
412.1999999999999,-0.01026
412.3999999999999,-0.009593
412.6,-0.008106
412.7999999999999,-0.004994
413.0,-0.001654
413.1999999999999,-0.004501
413.3999999999999,-0.00568
413.6,-0.006796
413.7999999999999,-0.008554
414.0,-0.009083
414.1999999999999,-0.00652
414.3999999999999,-0.0016370000000001
414.6,0.0009569999999999
414.7999999999999,0.0021159999999998
415.0,0.0002609999999999
415.1999999999999,-0.002924
415.3999999999999,-0.009003
415.6,-0.014118
415.7999999999999,-0.016723
416.0,-0.015291
416.1999999999999,-0.013031
416.3999999999999,-0.0090150000000001
416.6,-0.004995
416.7999999999999,-0.001972
417.0,-0.002156
417.1999999999999,-0.001949
417.3999999999999,-0.001534
417.6,-0.001451
417.7999999999999,-9.6000000000096e-05
418.0,0.0003019999999999
418.1999999999999,0.0001429999999998
418.3999999999999,-0.002033
418.6,-0.003404
418.7999999999999,-0.006457
419.0,-0.0086830000000001
419.1999999999999,-0.012877
419.3999999999999,-0.014526
419.6,-0.0148220000000001
419.7999999999999,-0.0139030000000001
420.0,-0.011612
420.1999999999999,-0.007596
420.3999999999999,-0.005813
420.6,-0.006183
420.7999999999999,-0.008091
421.0,-0.007477
421.1999999999999,-0.0058880000000001
421.3999999999999,-0.005016
421.6,-0.003842
421.7999999999999,-0.003238
422.0,-0.003814
422.1999999999999,-0.005447
422.3999999999999,-0.004279
422.6,-0.003971
422.7999999999999,-0.0021540000000001
423.0,-0.001138
423.1999999999999,0.0003549999999998
423.3999999999999,-0.000891
423.6,-0.0025480000000001
423.7999999999999,-0.003337
424.0,-0.003846
424.1999999999999,-0.0050730000000001
424.3999999999999,-0.004507
424.6,-0.002257
424.7999999999999,-0.002437
425.0,-0.004655
425.1999999999999,-0.005201
425.3999999999999,-0.006865
425.6,-0.01345
425.7999999999999,-0.018446
426.0,-0.017708
426.1999999999999,-0.01605
426.3999999999999,-0.015511
426.6,-0.010631
426.7999999999999,-0.004789
427.0,-0.0046250000000001
427.1999999999999,-0.008082
427.3999999999999,-0.010084
427.6,-0.008559
427.7999999999999,-0.009827
428.0,-0.0118720000000001
428.1999999999999,-0.012244
428.3999999999999,-0.0105400000000001
428.6,-0.011971
428.7999999999999,-0.013624
429.0,-0.013005
429.1999999999999,-0.009634
429.3999999999999,-0.007084
429.6,-0.006256
429.7999999999999,-0.004806
430.0,-0.004207
430.1999999999999,-0.0081580000000001
430.3999999999999,-0.013206
430.6,-0.015587
430.7999999999999,-0.015599
431.0,-0.015502
431.1999999999999,-0.013368
431.3999999999999,-0.011225
431.6,-0.009824
431.7999999999999,-0.0115440000000001
432.0,-0.012371
432.1999999999999,-0.013985
432.3999999999999,-0.016483
432.6,-0.017636
432.7999999999999,-0.014873
433.0,-0.016111
433.1999999999999,-0.014118
433.3999999999999,-0.0113200000000001
433.6,-0.009446
433.7999999999999,-0.011143
434.0,-0.011372
434.1999999999999,-0.014367
434.3999999999999,-0.015452
434.6,-0.01728
434.7999999999999,-0.0167
435.0,-0.012951
435.1999999999999,-0.009757
435.3999999999999,-0.009635
435.6,-0.0100150000000001
435.7999999999999,-0.01043
436.0,-0.011993
436.1999999999999,-0.012147
436.3999999999999,-0.0122930000000001
436.6,-0.0102850000000001
436.7999999999999,-0.009211
437.0,-0.0087
437.1999999999999,-0.008312
437.3999999999999,-0.0066910000000001
437.6,-0.007012
437.7999999999999,-0.0072120000000001
438.0,-0.007592
438.1999999999999,-0.009634
438.3999999999999,-0.012422
438.6,-0.015217
438.7999999999999,-0.017176
439.0,-0.017446
439.1999999999999,-0.015335
439.3999999999999,-0.012522
439.6,-0.011294
439.7999999999999,-0.010994
440.0,-0.012101
440.1999999999999,-0.013386
440.3999999999999,-0.014304
440.6,-0.011641
440.7999999999999,-0.010553
441.0,-0.007754
441.1999999999999,-0.007191
441.3999999999999,-0.0063200000000001
441.6,-0.0080730000000001
441.7999999999999,-0.009071
442.0,-0.011691
442.1999999999999,-0.012442
442.3999999999999,-0.012506
442.6,-0.0098760000000001
442.7999999999999,-0.0087640000000001
443.0,-0.007663
443.1999999999999,-0.007268
443.3999999999999,-0.0073320000000001
443.6,-0.006793
443.7999999999999,-0.004398
444.0,-0.002999
444.1999999999999,-0.001542
444.3999999999999,-0.001437
444.6,-0.003593
444.7999999999999,-0.006078
445.0,-0.0071080000000001
445.1999999999999,-0.0087370000000001
445.3999999999999,-0.0103200000000001
445.6,-0.012178
445.7999999999999,-0.012913
446.0,-0.013898
446.1999999999999,-0.012863
446.3999999999999,-0.011564
446.6,-0.011641
446.7999999999999,-0.01242
447.0,-0.012353
447.1999999999999,-0.014189
447.3999999999999,-0.0167100000000001
447.6,-0.015759
447.7999999999999,-0.014676
448.0,-0.014365
448.1999999999999,-0.014535
448.3999999999999,-0.010742
448.6,-0.008682
448.7999999999999,-0.007174
449.0,-0.006484
449.1999999999999,-0.005439
449.3999999999999,-0.007686
449.6,-0.011562
449.7999999999999,-0.016666
450.0,-0.022044
450.1999999999999,-0.023324
450.3999999999999,-0.020161
450.6,-0.014745
450.7999999999999,-0.00981
451.0,-0.0037490000000001
451.1999999999999,-0.00206
451.3999999999999,-0.003836
451.6,-0.009271
451.7999999999999,-0.0111620000000001
452.0,-0.013017
452.1999999999999,-0.012677
452.3999999999999,-0.011937
452.6,-0.0098260000000001
452.7999999999999,-0.008321
453.0,-0.005852
453.1999999999999,-0.0045210000000001
453.3999999999999,-0.0040770000000001
453.6,-0.0025750000000001
453.7999999999999,-0.001495
454.0,-0.000949
454.1999999999999,-0.000846
454.3999999999999,-0.002975
454.6,-0.004852
454.7999999999999,-0.007007
455.0,-0.008952
455.1999999999999,-0.0100730000000001
455.3999999999999,-0.010329
455.6,-0.009609
455.7999999999999,-0.009589
456.0,-0.011346
456.1999999999999,-0.015497
456.3999999999999,-0.018099
456.6,-0.019811
456.7999999999999,-0.018574
457.0,-0.015408
457.1999999999999,-0.013122
457.3999999999999,-0.010662
457.6,-0.008083
457.7999999999999,-0.007238
458.0,-0.007312
458.1999999999999,-0.005404
458.3999999999999,-0.0063
458.6,-0.010483
458.7999999999999,-0.0144050000000001
459.0,-0.016727
459.1999999999999,-0.01608
459.3999999999999,-0.0138450000000001
459.6,-0.011386
459.7999999999999,-0.0117410000000001
460.0,-0.014389
460.1999999999999,-0.018125
460.3999999999999,-0.0211690000000001
460.6,-0.0211420000000001
460.7999999999999,-0.01952
461.0,-0.015917
461.1999999999999,-0.0141770000000001
461.3999999999999,-0.0119220000000001
461.6,-0.010941
461.7999999999999,-0.0099690000000001
462.0,-0.009617
462.1999999999999,-0.007813
462.3999999999999,-0.005507
462.6,-0.004943
462.7999999999999,-0.006406
463.0,-0.007801
463.1999999999999,-0.009651
463.3999999999999,-0.012193
463.6,-0.014244
463.7999999999999,-0.014163
464.0,-0.014394
464.1999999999999,-0.0130190000000001
464.3999999999999,-0.011759
464.6,-0.0088140000000001
464.7999999999999,-0.004852
465.0,-0.0016100000000001
465.1999999999999,-0.001655
465.3999999999999,-0.001896
465.6,-0.005037
465.7999999999999,-0.008112
466.0,-0.0105750000000001
466.1999999999999,-0.010846
466.3999999999999,-0.012361
466.6,-0.0097180000000001
466.7999999999999,-0.008251
467.0,-0.00708
467.1999999999999,-0.0059960000000001
467.3999999999999,-0.003452
467.6,-0.004008
467.7999999999999,-0.005213
468.0,-0.005499
468.1999999999999,-0.0072160000000001
468.3999999999999,-0.011044
468.6,-0.014147
468.7999999999999,-0.013807
469.0,-0.014943
469.1999999999999,-0.014122
469.3999999999999,-0.011739
469.6,-0.008628
469.7999999999999,-0.008225
470.0,-0.006334
470.1999999999999,-0.0053280000000001
470.3999999999999,-0.005744
470.6,-0.006623
470.7999999999999,-0.00857
471.0,-0.009365
471.1999999999999,-0.012234
471.3999999999999,-0.013775
471.6,-0.01652
471.7999999999999,-0.015989
472.0,-0.017589
472.1999999999999,-0.016727
472.3999999999999,-0.015715
472.6,-0.0125940000000001
472.7999999999999,-0.011856
473.0,-0.010071
473.1999999999999,-0.009865
473.3999999999999,-0.00878
473.6,-0.009529
473.7999999999999,-0.0093820000000001
474.0,-0.009072
474.1999999999999,-0.005642
474.3999999999999,-0.004137
474.6,-0.003902
474.7999999999999,-0.003894
475.0,-0.005786
475.1999999999999,-0.010313
475.3999999999999,-0.012318
475.6,-0.012763
475.7999999999999,-0.015002
476.0,-0.015197
476.1999999999999,-0.0142310000000001
476.3999999999999,-0.013623
476.6,-0.011583
476.7999999999999,-0.006877
477.0,-0.003021
477.1999999999999,-0.000588
477.3999999999999,-0.000908
477.6,-0.003422
477.7999999999999,-0.00841
478.0,-0.014473
478.1999999999999,-0.018545
478.3999999999999,-0.0199300000000001
478.6,-0.0210260000000001
478.7999999999999,-0.021098
479.0,-0.018992
479.1999999999999,-0.019022
479.3999999999999,-0.01943
479.6,-0.020967
479.7999999999999,-0.02099
480.0,-0.022066
480.1999999999999,-0.021537
480.3999999999999,-0.019047
480.6,-0.014995
480.7999999999999,-0.013557
481.0,-0.01343
481.1999999999999,-0.012811
481.3999999999999,-0.0148370000000001
481.6,-0.016579
481.7999999999999,-0.017789
482.0,-0.0176020000000001
482.1999999999999,-0.018749
482.3999999999999,-0.019052
482.6,-0.017498
482.7999999999999,-0.014055
483.0,-0.01134
483.1999999999999,-0.009232
483.3999999999999,-0.007632
483.6,-0.00813
483.7999999999999,-0.010332
484.0,-0.010658
484.1999999999999,-0.0122000000000001
484.3999999999999,-0.012099
484.6,-0.010461
484.7999999999999,-0.007893
485.0,-0.0082310000000001
485.1999999999999,-0.006336
485.3999999999999,-0.007485
485.6,-0.009952
485.7999999999999,-0.011501
486.0,-0.012277
486.1999999999999,-0.011156
486.3999999999999,-0.008337
486.6,-0.004091
486.7999999999999,-0.00236
487.0,-0.003727
487.1999999999999,-0.007064
487.3999999999999,-0.01081
487.6,-0.01361
487.7999999999999,-0.016414
488.0,-0.014767
488.1999999999999,-0.012797
488.3999999999999,-0.010726
488.6,-0.012393
488.7999999999999,-0.0119110000000001
489.0,-0.009746
489.1999999999999,-0.007901
489.3999999999999,-0.007956
489.6,-0.0075400000000001
489.7999999999999,-0.007727
490.0,-0.009682
490.1999999999999,-0.0115
490.3999999999999,-0.0117180000000001
490.6,-0.01121
490.7999999999999,-0.011897
491.0,-0.012673
491.1999999999999,-0.014452
491.3999999999999,-0.01713
491.6,-0.019516
491.7999999999999,-0.022076
492.0,-0.023531
492.1999999999999,-0.024224
492.3999999999999,-0.0217480000000001
492.6,-0.019211
492.7999999999999,-0.015166
493.0,-0.013726
493.1999999999999,-0.010419
493.3999999999999,-0.010094
493.6,-0.010504
493.7999999999999,-0.011561
494.0,-0.009882
494.1999999999999,-0.012284
494.3999999999999,-0.01516
494.6,-0.01602
494.7999999999999,-0.01463
495.0,-0.014612
495.1999999999999,-0.014024
495.3999999999999,-0.012272
495.6,-0.011588
495.7999999999999,-0.011855
496.0,-0.012499
496.1999999999999,-0.0111190000000001
496.3999999999999,-0.011611
496.6,-0.0129650000000001
496.7999999999999,-0.014948
497.0,-0.0149650000000001
497.1999999999999,-0.0125400000000001
497.3999999999999,-0.011184
497.6,-0.012931
497.7999999999999,-0.012726
498.0,-0.013055
498.1999999999999,-0.013971
498.3999999999999,-0.012511
498.6,-0.009136
498.7999999999999,-0.0075710000000001
499.0,-0.008307
499.1999999999999,-0.0134280000000001
499.3999999999999,-0.0171190000000001
499.6,-0.0174240000000001
499.7999999999999,-0.0187100000000001
500.0,-0.021749
500.1999999999999,-0.022149
500.3999999999999,-0.021983
500.6,-0.021804
500.7999999999999,-0.02355
501.0,-0.0217560000000001
501.1999999999999,-0.018998
501.3999999999999,-0.017216
501.6,-0.0157680000000001
501.7999999999999,-0.013898
502.0,-0.013319
502.1999999999999,-0.01534
502.3999999999999,-0.0174860000000001
502.6,-0.019543
502.7999999999999,-0.018588
503.0,-0.014677
503.1999999999999,-0.0100190000000001
503.3999999999999,-0.00277
503.6,0.0015399999999999
503.7999999999999,0.0041809999999999
504.0,0.0025239999999999
504.1999999999999,-0.000489
504.3999999999999,-0.007062
504.6,-0.011516
504.7999999999999,-0.0153700000000001
505.0,-0.017663
505.1999999999999,-0.018998
505.3999999999999,-0.017503
505.6,-0.0167
505.7999999999999,-0.0172930000000001
506.0,-0.015709
506.1999999999999,-0.012549
506.3999999999999,-0.010349
506.6,-0.008308
506.7999999999999,-0.006341
507.0,-0.0054010000000001
507.1999999999999,-0.005995
507.3999999999999,-0.008581
507.6,-0.011969
507.7999999999999,-0.011031
508.0,-0.014178
508.1999999999999,-0.016315
508.3999999999999,-0.0175980000000001
508.6,-0.015139
508.7999999999999,-0.0150420000000001
509.0,-0.014167
509.1999999999999,-0.0136710000000001
509.3999999999999,-0.012986
509.6,-0.013613
509.7999999999999,-0.014667
510.0,-0.0127560000000001
510.1999999999999,-0.012878
510.3999999999999,-0.0137020000000001
510.6,-0.017198
510.7999999999999,-0.017774
511.0,-0.0186210000000001
511.1999999999999,-0.014301
511.3999999999999,-0.010669
511.6,-0.006908
511.7999999999999,-0.008283
512.0,-0.0109880000000001
512.1999999999998,-0.014781
512.3999999999999,-0.015931
512.5999999999999,-0.016721
512.8,-0.015148
513.0,-0.0126060000000001
513.1999999999998,-0.013236
513.3999999999999,-0.015223
513.5999999999999,-0.015824
513.8,-0.016283
514.0,-0.018002
514.1999999999998,-0.019897
514.3999999999999,-0.020717
514.5999999999999,-0.020689
514.8,-0.021407
515.0,-0.020363
515.1999999999998,-0.018309
515.3999999999999,-0.016452
515.5999999999999,-0.016973
515.8,-0.016411
516.0,-0.013691
516.1999999999998,-0.0118840000000001
516.3999999999999,-0.011248
516.5999999999999,-0.0113200000000001
516.8,-0.010725
517.0,-0.015126
517.1999999999998,-0.016641
517.3999999999999,-0.018862
517.5999999999999,-0.017939
517.8,-0.0199180000000001
518.0,-0.018624
518.1999999999998,-0.017887
518.3999999999999,-0.016595
518.5999999999999,-0.018438
518.8,-0.018583
519.0,-0.0175980000000001
519.1999999999998,-0.016852
519.3999999999999,-0.0167950000000001
519.5999999999999,-0.015205
519.8,-0.013708
520.0,-0.0157950000000001
520.1999999999998,-0.018623
520.3999999999999,-0.018708
520.5999999999999,-0.017361
520.8,-0.019206
521.0,-0.017206
521.1999999999998,-0.014901
521.3999999999999,-0.014224
521.5999999999999,-0.015211
521.8,-0.013792
522.0,-0.0130460000000001
522.1999999999998,-0.012804
522.3999999999999,-0.012628
522.5999999999999,-0.01303
522.8,-0.015195
523.0,-0.019948
523.1999999999998,-0.023187
523.3999999999999,-0.024977
523.5999999999999,-0.024075
523.8,-0.0221230000000001
524.0,-0.019012
524.1999999999998,-0.019261
524.3999999999999,-0.020054
524.5999999999999,-0.0218330000000001
524.8,-0.020558
525.0,-0.019006
525.1999999999998,-0.017183
525.3999999999999,-0.017357
525.5999999999999,-0.018889
525.8,-0.02009
526.0,-0.0195360000000001
526.1999999999998,-0.016919
526.3999999999999,-0.014535
526.5999999999999,-0.011518
526.8,-0.011583
527.0,-0.013878
527.1999999999998,-0.01682
527.3999999999999,-0.017299
527.5999999999999,-0.019067
527.8,-0.01973
528.0,-0.019809
528.1999999999998,-0.018082
528.3999999999999,-0.016662
528.5999999999999,-0.015276
528.8,-0.013196
529.0,-0.01225
529.1999999999998,-0.0131190000000001
529.3999999999999,-0.015468
529.5999999999999,-0.015865
529.8,-0.014823
530.0,-0.014043
530.1999999999998,-0.0147100000000001
530.3999999999999,-0.012874
530.5999999999999,-0.012221
530.8,-0.0133
531.0,-0.013159
531.1999999999998,-0.0106560000000001
531.3999999999999,-0.010097
531.5999999999999,-0.0081930000000001
531.8,-0.0070150000000001
532.0,-0.006725
532.1999999999998,-0.00823
532.3999999999999,-0.009516
532.5999999999999,-0.011147
532.8,-0.01335
533.0,-0.015784
533.1999999999998,-0.019453
533.3999999999999,-0.022475
533.5999999999999,-0.0244970000000001
533.8,-0.022769
534.0,-0.020368
534.1999999999998,-0.015134
534.3999999999999,-0.010488
534.5999999999999,-0.0075790000000001
534.8,-0.0082620000000001
535.0,-0.007954
535.1999999999998,-0.009503
535.3999999999999,-0.0111540000000001
535.5999999999999,-0.0151040000000001
535.8,-0.01534
536.0,-0.015376
536.1999999999998,-0.014306
536.3999999999999,-0.012439
536.5999999999999,-0.009613
536.8,-0.009983
537.0,-0.014071
537.1999999999998,-0.015187
537.3999999999999,-0.015942
537.5999999999999,-0.013585
537.8,-0.013514
538.0,-0.011
538.1999999999998,-0.009757
538.3999999999999,-0.008466
538.5999999999999,-0.010765
538.8,-0.012526
539.0,-0.012209
539.1999999999998,-0.014527
539.3999999999999,-0.017467
539.5999999999999,-0.01787
539.8,-0.01543
540.0,-0.01548
540.1999999999998,-0.014556
540.3999999999999,-0.0134280000000001
540.5999999999999,-0.0123780000000001
540.8,-0.012649
541.0,-0.0118990000000001
541.1999999999998,-0.012292
541.3999999999999,-0.01408
541.5999999999999,-0.016524
541.8,-0.018036
542.0,-0.018727
542.1999999999998,-0.019402
542.3999999999999,-0.018054
542.5999999999999,-0.017533
542.8,-0.016881
543.0,-0.019249
543.1999999999998,-0.0187210000000001
543.3999999999999,-0.019719
543.5999999999999,-0.019723
543.8,-0.021426
544.0,-0.019564
544.1999999999998,-0.0199030000000001
544.3999999999999,-0.019338
544.5999999999999,-0.0188450000000001
544.8,-0.01892
545.0,-0.020024
545.1999999999998,-0.01924
545.3999999999999,-0.020184
545.5999999999999,-0.021784
545.8,-0.021351
546.0,-0.020461
546.1999999999998,-0.021028
546.3999999999999,-0.022483
546.5999999999999,-0.022638
546.8,-0.0222770000000001
547.0,-0.02402
547.1999999999998,-0.0270920000000001
547.3999999999999,-0.027924
547.5999999999999,-0.02718
547.8,-0.0239530000000001
548.0,-0.020796
548.1999999999998,-0.01651
548.3999999999999,-0.013512
548.5999999999999,-0.012732
548.8,-0.0163970000000001
549.0,-0.018932
549.1999999999998,-0.021044
549.3999999999999,-0.020654
549.5999999999999,-0.016936
549.8,-0.01375
550.0,-0.0111460000000001
550.1999999999998,-0.008345
550.3999999999999,-0.007472
550.5999999999999,-0.01021
550.8,-0.013053
551.0,-0.013966
551.1999999999998,-0.014205
551.3999999999999,-0.013559
551.5999999999999,-0.011182
551.8,-0.00677
552.0,-0.005157
552.1999999999998,-0.005532
552.3999999999999,-0.0076290000000001
552.5999999999999,-0.010869
552.8,-0.01447
553.0,-0.017637
553.1999999999998,-0.0211730000000001
553.3999999999999,-0.022737
553.5999999999999,-0.02362
553.8,-0.0227480000000001
554.0,-0.0208450000000001
554.1999999999998,-0.020273
554.3999999999999,-0.020351
554.5999999999999,-0.017883
554.8,-0.01429
555.0,-0.010999
555.1999999999998,-0.008904
555.3999999999999,-0.010009
555.5999999999999,-0.013518
555.8,-0.018958
556.0,-0.022834
556.1999999999998,-0.0211460000000001
556.3999999999999,-0.01605
556.5999999999999,-0.011527
556.8,-0.0114280000000001
557.0,-0.011367
557.1999999999998,-0.012858
557.3999999999999,-0.014047
557.5999999999999,-0.0165940000000001
557.8,-0.016449
558.0,-0.017548
558.1999999999998,-0.01614
558.3999999999999,-0.013332
558.5999999999999,-0.012003
558.8,-0.0094050000000001
559.0,-0.0077680000000001
559.1999999999998,-0.01033
559.3999999999999,-0.0155090000000001
559.5999999999999,-0.01682
559.8,-0.018434
560.0,-0.01846
560.1999999999998,-0.018497
560.3999999999999,-0.018521
560.5999999999999,-0.018885
560.8,-0.019164
561.0,-0.0209760000000001
561.1999999999998,-0.020719
561.3999999999999,-0.0210880000000001
561.5999999999999,-0.022029
561.8,-0.022744
562.0,-0.023172
562.1999999999998,-0.023287
562.3999999999999,-0.021736
562.5999999999999,-0.019182
562.8,-0.015832
563.0,-0.012866
563.1999999999998,-0.013614
563.3999999999999,-0.015832
563.5999999999999,-0.0173510000000001
563.8,-0.019105
564.0,-0.020658
564.1999999999998,-0.020273
564.3999999999999,-0.0166830000000001
564.5999999999999,-0.015661
564.8,-0.014574
565.0,-0.014271
565.1999999999998,-0.0132390000000001
565.3999999999999,-0.015605
565.5999999999999,-0.0181770000000001
565.8,-0.020197
566.0,-0.020665
566.1999999999998,-0.0211190000000001
566.3999999999999,-0.020788
566.5999999999999,-0.018305
566.8,-0.016727
567.0,-0.012384
567.1999999999998,-0.009823
567.3999999999999,-0.006686
567.5999999999999,-0.008348
567.8,-0.0101620000000001
568.0,-0.016856
568.1999999999998,-0.020079
568.3999999999999,-0.023337
568.5999999999999,-0.0221110000000001
568.8,-0.021306
569.0,-0.019846
569.1999999999998,-0.019124
569.3999999999999,-0.017221
569.5999999999999,-0.017651
569.8,-0.019932
570.0,-0.021427
570.1999999999998,-0.020021
570.3999999999999,-0.019816
570.5999999999999,-0.018641
570.8,-0.0172540000000001
571.0,-0.018085
571.1999999999998,-0.02188
571.3999999999999,-0.024828
571.5999999999999,-0.028759
571.8,-0.02927
572.0,-0.025967
572.1999999999998,-0.0215360000000001
572.3999999999999,-0.019101
572.5999999999999,-0.0154320000000001
572.8,-0.014913
573.0,-0.0124940000000001
573.1999999999998,-0.01035
573.3999999999999,-0.008643
573.5999999999999,-0.0090650000000001
573.8,-0.010622
573.9999999999998,-0.0157830000000001
574.1999999999998,-0.021517
574.3999999999999,-0.026885
574.5999999999999,-0.030658
574.8,-0.031167
574.9999999999998,-0.030926
575.1999999999998,-0.0288560000000001
575.3999999999999,-0.026118
575.5999999999999,-0.024282
575.8,-0.0250570000000001
575.9999999999998,-0.0248720000000001
576.1999999999998,-0.0272730000000001
576.3999999999999,-0.028889
576.5999999999999,-0.027988
576.8,-0.024215
576.9999999999998,-0.0191730000000001
577.1999999999998,-0.017271
577.3999999999999,-0.016247
577.5999999999999,-0.0153080000000001
577.8,-0.016609
577.9999999999998,-0.020871
578.1999999999998,-0.021318
578.3999999999999,-0.02184
578.5999999999999,-0.024767
578.8,-0.02545
578.9999999999998,-0.023325
579.1999999999998,-0.02227
579.3999999999999,-0.021476
579.5999999999999,-0.019215
579.8,-0.019444
579.9999999999998,-0.021107
580.1999999999998,-0.021544
580.3999999999999,-0.019338
580.5999999999999,-0.018063
580.8,-0.016182
580.9999999999998,-0.0144320000000001
581.1999999999998,-0.014836
581.3999999999999,-0.01684
581.5999999999999,-0.01928
581.8,-0.022332
581.9999999999998,-0.02754
582.1999999999998,-0.030736
582.3999999999999,-0.0334040000000001
582.5999999999999,-0.031796
582.8,-0.028035
582.9999999999998,-0.022608
583.1999999999998,-0.017147
583.3999999999999,-0.012699
583.5999999999999,-0.010641
583.8,-0.009875
583.9999999999998,-0.009982
584.1999999999998,-0.0110730000000001
584.3999999999999,-0.013701
584.5999999999999,-0.01565
584.8,-0.016605
584.9999999999998,-0.0172930000000001
585.1999999999998,-0.015557
585.3999999999999,-0.014317
585.5999999999999,-0.014622
585.8,-0.0152850000000001
585.9999999999998,-0.016557
586.1999999999998,-0.0210070000000001
586.3999999999999,-0.023013
586.5999999999999,-0.024686
586.8,-0.027266
586.9999999999998,-0.02868
587.1999999999998,-0.029925
587.3999999999999,-0.028834
587.5999999999999,-0.025906
587.8,-0.0215670000000001
587.9999999999998,-0.020033
588.1999999999998,-0.0186710000000001
588.3999999999999,-0.0183160000000001
588.5999999999999,-0.020087
588.8,-0.0227640000000001
588.9999999999998,-0.0228870000000001
589.1999999999998,-0.021104
589.3999999999999,-0.018937
589.5999999999999,-0.016722
589.8,-0.0129610000000001
589.9999999999998,-0.009982
590.1999999999998,-0.0093550000000001
590.3999999999999,-0.011471
590.5999999999999,-0.014261
590.8,-0.016456
590.9999999999998,-0.017184
591.1999999999998,-0.0179070000000001
591.3999999999999,-0.02101
591.5999999999999,-0.0237600000000001
591.8,-0.026703
591.9999999999998,-0.0293120000000001
592.1999999999998,-0.028998
592.3999999999999,-0.025742
592.5999999999999,-0.022406
592.8,-0.022565
592.9999999999998,-0.0234240000000001
593.1999999999998,-0.025259
593.3999999999999,-0.026224
593.5999999999999,-0.02574
593.8,-0.023164
593.9999999999998,-0.021255
594.1999999999998,-0.0222850000000001
594.3999999999999,-0.023498
594.5999999999999,-0.0256940000000001
594.8,-0.0259180000000001
594.9999999999998,-0.024656
595.1999999999998,-0.021422
595.3999999999999,-0.019151
595.5999999999999,-0.015718
595.8,-0.0124050000000001
595.9999999999998,-0.012211
596.1999999999998,-0.009854
596.3999999999999,-0.008456
596.5999999999999,-0.00962
596.8,-0.014102
596.9999999999998,-0.0175710000000001
597.1999999999998,-0.0237790000000001
597.3999999999999,-0.026774
597.5999999999999,-0.026167
597.8,-0.0244200000000001
597.9999999999998,-0.023467
598.1999999999998,-0.0204240000000001
598.3999999999999,-0.017612
598.5999999999999,-0.018039
598.8,-0.02049
598.9999999999998,-0.021906
599.1999999999998,-0.023693
