Time (s),Shift (nm)
0.0,0.0
0.1999999999999886,-0.0014450000000003
0.3999999999999772,0.0010699999999999
0.5999999999999659,0.0030229999999997
0.7999999999999545,0.0048339999999997
1.0,0.0077139999999999
1.1999999999999886,0.0102249999999997
1.3999999999999773,0.010653
1.599999999999966,0.009471
1.7999999999999543,0.0067599999999998
2.0,0.0031839999999996
2.1999999999999886,0.0003789999999996
2.3999999999999773,-0.002501
2.599999999999966,-0.002123
2.7999999999999545,-0.0003110000000003
3.0,0.0017449999999996
3.1999999999999886,0.0024429999999999
3.3999999999999773,0.0047509999999997
3.599999999999966,0.0061479999999995
3.7999999999999545,0.0052839999999996
4.0,0.0041479999999998
4.199999999999989,0.0054929999999999
4.399999999999977,0.0088709999999996
4.599999999999966,0.0110439999999996
4.7999999999999545,0.0143409999999999
5.0,0.0160829999999996
5.199999999999989,0.0166039999999996
5.399999999999977,0.0134049999999996
5.599999999999966,0.0113739999999999
5.7999999999999545,0.0119389999999999
6.0,0.0122399999999998
6.199999999999989,0.0117459999999995
6.399999999999977,0.0129809999999999
6.599999999999966,0.014151
6.7999999999999545,0.0125409999999996
7.0,0.0123989999999998
7.199999999999989,0.0105589999999997
7.399999999999977,0.0101329999999997
7.599999999999966,0.0082399999999998
7.799999999999954,0.0084389999999996
8.0,0.0074659999999999
8.199999999999989,0.0080369999999998
8.399999999999977,0.0073999999999996
8.599999999999966,0.0069499999999997
8.799999999999955,0.0046829999999999
9.0,0.0024949999999996
9.199999999999989,0.0003319999999997
9.399999999999975,-0.0010080000000001
9.599999999999966,-0.0018820000000001
9.799999999999956,-0.002091
10.0,-0.0018480000000002
10.199999999999989,-0.0010570000000003
10.399999999999975,0.0004389999999996
10.599999999999966,0.0041629999999996
10.799999999999956,0.0091339999999999
11.0,0.0135139999999998
11.199999999999989,0.0173339999999999
11.399999999999975,0.0185979999999998
11.599999999999966,0.0189099999999999
11.799999999999956,0.0150439999999996
12.0,0.0122219999999999
12.199999999999989,0.0086729999999999
12.399999999999975,0.0053209999999999
12.599999999999966,0.0032079999999998
12.799999999999956,0.0041829999999998
13.0,0.0036459999999998
13.199999999999989,0.0030899999999998
13.399999999999975,0.0030929999999997
13.599999999999966,0.0024509999999997
13.799999999999956,0.0026089999999996
14.0,0.0025109999999997
14.199999999999989,0.0040169999999997
14.399999999999975,0.0047509999999997
14.599999999999966,0.0039389999999999
14.799999999999956,0.0014689999999997
15.0,0.0007949999999996
15.199999999999989,-0.0001060000000001
15.399999999999975,0.0007959999999997
15.599999999999966,0.0029009999999995
15.799999999999956,0.0057979999999999
16.0,0.0058769999999999
16.19999999999999,0.0052159999999998
16.399999999999977,0.0030889999999996
16.599999999999966,0.0033049999999996
16.799999999999955,0.0051549999999997
17.0,0.0101299999999997
17.19999999999999,0.0133949999999996
17.399999999999977,0.0183419999999996
17.599999999999966,0.0194399999999999
17.799999999999955,0.0177289999999996
18.0,0.0135399999999998
18.19999999999999,0.0097519999999997
18.399999999999977,0.0053849999999999
18.59999999999997,0.0048809999999996
18.799999999999955,0.0061239999999997
19.0,0.0089959999999997
19.19999999999999,0.0120449999999996
19.399999999999977,0.0122139999999997
19.59999999999997,0.0108269999999999
19.799999999999955,0.0103279999999998
20.0,0.0090119999999997
20.19999999999999,0.0099299999999997
20.399999999999977,0.0110879999999999
20.59999999999997,0.0122879999999998
20.799999999999955,0.010008
21.0,0.0083429999999999
21.19999999999999,0.0060669999999998
21.399999999999977,0.0044859999999999
21.59999999999997,0.0030749999999999
21.799999999999955,0.0043069999999998
22.0,0.0051919999999996
22.19999999999999,0.00583
22.399999999999977,0.0084619999999997
22.59999999999997,0.0095359999999997
22.799999999999955,0.009363
23.0,0.0116289999999996
23.19999999999999,0.0135959999999997
23.399999999999977,0.013992
23.59999999999997,0.0119599999999997
23.799999999999955,0.0102029999999997
24.0,0.0065949999999999
24.19999999999999,0.0021879999999998
24.399999999999977,-0.0018540000000002
24.59999999999997,-0.0019560000000002
24.799999999999955,-0.0021470000000003
25.0,-0.0033920000000002
25.19999999999999,-0.0026320000000001
25.399999999999977,6.599999999989947e-05
25.59999999999997,0.0004429999999997
25.799999999999955,0.0001889999999997
26.0,0.0006829999999999
26.19999999999999,-0.0002870000000001
26.399999999999977,-0.0029460000000001
26.59999999999997,-0.0026920000000001
26.799999999999955,-0.0007380000000001
27.0,0.0019629999999999
27.19999999999999,0.0053139999999998
27.399999999999977,0.0092969999999996
27.59999999999997,0.0089089999999996
27.799999999999955,0.0073889999999998
28.0,0.0052929999999999
28.19999999999999,0.0022259999999998
28.399999999999977,-0.000655
28.59999999999997,-0.0012929999999999
28.799999999999955,-0.0023720000000002
29.0,-0.0033150000000001
29.19999999999999,-0.0038960000000001
29.399999999999977,-0.0051780000000003
29.59999999999997,-0.0053550000000002
29.799999999999955,-0.0038770000000001
30.0,-0.0026540000000001
30.19999999999999,-0.002485
30.399999999999977,-0.002129
30.59999999999997,-0.0019850000000003
30.799999999999955,-0.0018000000000002
31.0,-0.001265
31.19999999999999,0.0016569999999997
31.399999999999977,0.0054959999999999
31.59999999999997,0.0063099999999995
31.799999999999955,0.0058359999999999
32.0,0.0056159999999998
32.19999999999999,0.0052349999999998
32.39999999999998,0.0047799999999997
32.599999999999966,0.0084889999999999
32.799999999999955,0.0095869999999997
33.0,0.0076339999999999
33.19999999999999,0.004124
33.39999999999998,0.0022089999999996
33.599999999999966,-0.0012470000000002
33.799999999999955,-0.00224
34.0,-0.0021650000000001
34.19999999999999,-0.000553
34.39999999999998,-0.001373
34.599999999999966,-0.0024130000000002
34.799999999999955,-0.002526
35.0,-0.0005430000000004
35.19999999999999,0.0015259999999996
35.39999999999998,0.0011529999999999
35.599999999999966,0.002475
35.799999999999955,0.0044259999999995
36.0,0.0053199999999997
36.19999999999999,0.0050069999999999
36.39999999999998,0.0053169999999997
36.599999999999966,0.0026499999999995
36.79999999999996,0.0004629999999998
37.0,0.0007329999999998
37.19999999999999,0.0005879999999995
37.39999999999998,8.499999999989072e-05
37.599999999999966,-0.0004570000000003
37.79999999999996,-0.0021150000000003
38.0,-0.0055880000000003
38.19999999999999,-0.0076530000000003
38.39999999999998,-0.0071880000000001
38.599999999999966,-0.0040950000000004
38.79999999999996,-0.0013050000000003
39.0,0.0001909999999996
39.19999999999999,0.0021799999999996
39.39999999999998,0.0042559999999998
39.599999999999966,0.0045539999999997
39.79999999999996,0.0050529999999997
40.0,0.0064439999999996
40.19999999999999,0.0067409999999998
40.39999999999998,0.0079479999999998
40.599999999999966,0.0090319999999999
40.79999999999996,0.0063149999999998
41.0,0.001916
41.19999999999999,-0.0018570000000002
41.39999999999998,-0.005465
41.599999999999966,-0.0085049999999999
41.79999999999996,-0.009122
42.0,-0.0088150000000002
42.19999999999999,-0.0075250000000002
42.39999999999998,-0.0060680000000004
42.599999999999966,-0.0035130000000003
42.79999999999996,0.0004379999999999
43.0,0.0046319999999999
43.19999999999999,0.0050139999999996
43.39999999999998,0.0033459999999996
43.599999999999966,0.0005599999999996
43.79999999999996,-0.0031820000000002
44.0,-0.0070210000000003
44.19999999999999,-0.0062200000000003
44.39999999999998,-0.004728
44.599999999999966,-0.0022079999999999
44.79999999999996,0.0009629999999996
45.0,0.0020469999999996
45.19999999999999,0.0014999999999996
45.39999999999998,0.0007709999999998
45.599999999999966,0.0008159999999999
45.79999999999996,0.0009379999999996
46.0,0.0024849999999996
46.19999999999999,0.0019859999999995
46.39999999999998,0.0042879999999998
46.599999999999966,0.0039819999999997
46.79999999999996,0.0046419999999995
47.0,0.0041369999999996
47.19999999999999,0.0067179999999997
47.39999999999998,0.0051249999999996
47.599999999999966,0.0053199999999997
47.79999999999996,0.0029599999999998
48.0,0.0045809999999999
48.19999999999999,0.0043439999999996
48.39999999999998,0.0054209999999996
48.599999999999966,0.0040479999999996
48.79999999999996,0.0033939999999996
49.0,0.0017279999999999
49.19999999999999,-0.0002440000000003
49.39999999999998,-0.0027650000000001
49.599999999999966,-0.0024790000000001
49.79999999999996,-0.0011450000000001
50.0,-0.0014530000000001
50.19999999999999,-0.001862
50.39999999999998,-0.0012060000000002
50.599999999999966,0.0019359999999997
50.79999999999996,0.004645
51.0,0.0056429999999996
51.19999999999999,0.0085319999999997
51.39999999999998,0.0098349999999998
51.599999999999966,0.0076269999999998
51.79999999999996,0.0025249999999998
52.0,0.0009399999999999
52.19999999999999,-0.0034850000000004
52.39999999999998,-0.003946
52.599999999999966,-0.006167
52.79999999999996,-0.0056030000000002
53.0,-0.0057990000000001
53.19999999999999,-0.0024630000000001
53.39999999999998,-0.0042220000000003
53.599999999999966,-0.0053810000000003
53.79999999999996,-0.0057770000000001
54.0,-0.004153
54.19999999999999,-0.0039830000000002
54.39999999999998,-0.000445
54.599999999999966,0.0050519999999996
54.79999999999996,0.0105809999999997
55.0,0.0110639999999997
55.19999999999999,0.0095119999999999
55.39999999999998,0.0085299999999999
55.599999999999966,0.0052079999999996
55.79999999999996,0.0018839999999999
56.0,0.0009029999999996
56.19999999999999,0.0006269999999997
56.39999999999998,-0.0009020000000004
56.599999999999966,-0.0011230000000002
56.79999999999996,-0.0035340000000001
57.0,-0.0048000000000003
57.19999999999999,-0.0039450000000003
57.39999999999998,-0.0023560000000002
57.599999999999966,0.000807
57.79999999999996,0.0029739999999995
58.0,0.0038859999999996
58.19999999999999,0.0032189999999996
58.39999999999998,0.0012959999999999
58.599999999999966,-0.0015710000000002
58.79999999999996,-0.0031120000000002
59.0,-0.0044000000000004
59.19999999999999,-0.0044170000000001
59.39999999999998,-0.0041190000000002
59.599999999999966,-0.003803
59.79999999999996,-0.00313
60.0,-0.002199
60.19999999999999,-0.001713
60.39999999999998,-0.0019120000000003
60.599999999999966,-0.0026010000000002
60.79999999999996,-0.0017910000000003
61.0,0.0006719999999997
61.19999999999999,0.0023419999999996
61.39999999999998,0.0040979999999999
61.60000000000002,0.0048799999999999
61.79999999999996,0.0054719999999996
62.0,0.0046529999999997
62.19999999999993,0.0040099999999996
62.39999999999998,0.0032339999999999
62.60000000000002,0.0015689999999999
62.79999999999996,-0.0005200000000002
63.0,-0.0038560000000003
63.19999999999993,-0.006882
63.39999999999998,-0.0101810000000002
63.60000000000002,-0.0086270000000001
63.79999999999996,-0.0060730000000002
64.0,-0.0023240000000002
64.19999999999993,-0.002393
64.39999999999998,-0.0001390000000003
64.60000000000002,-0.0004790000000003
64.79999999999995,-0.0026190000000001
65.0,-0.0068380000000001
65.19999999999993,-0.0053520000000002
65.39999999999998,-0.0047740000000002
65.60000000000002,-0.0041670000000002
65.79999999999995,-0.003012
66.0,-0.0001350000000002
66.19999999999993,0.0006699999999999
66.39999999999998,0.0017999999999998
66.60000000000002,0.0013149999999999
66.79999999999995,0.0016339999999996
67.0,0.0017409999999999
67.19999999999993,0.0027779999999997
67.39999999999998,0.0014439999999997
67.60000000000002,0.0029009999999995
67.79999999999995,0.0019629999999999
68.0,0.0003879999999996
68.19999999999993,-0.0030580000000002
68.39999999999998,-0.0034130000000001
68.60000000000002,-0.006339
68.79999999999995,-0.0061930000000001
69.0,-0.0029310000000002
69.19999999999993,0.0027339999999997
69.39999999999998,0.0035709999999999
69.60000000000002,0.0021559999999998
69.79999999999995,-0.0002560000000002
70.0,-0.0059500000000003
70.19999999999993,-0.0115100000000003
70.39999999999998,-0.0124940000000002
70.60000000000002,-0.0083450000000002
70.79999999999995,-0.0042840000000001
71.0,0.0010119999999997
71.19999999999993,0.0053669999999996
71.39999999999998,0.008448
71.60000000000002,0.0078139999999997
71.79999999999995,0.0064199999999998
72.0,0.0028449999999997
72.19999999999993,-0.0003619999999999
72.39999999999998,-0.0036740000000001
72.60000000000002,-0.0025140000000001
72.79999999999995,-0.0019950000000004
73.0,-0.0007700000000001
73.19999999999993,-0.0005490000000003
73.39999999999998,-0.0001950000000001
73.60000000000002,-0.0015800000000001
73.79999999999995,-0.004439
74.0,-0.0058600000000001
74.19999999999993,-0.0064510000000002
74.39999999999998,-0.0056329999999999
74.60000000000002,-0.0056850000000001
74.79999999999995,-0.003648
75.0,-0.001106
75.19999999999993,-0.0008810000000001
75.39999999999998,-0.003276
75.60000000000002,-0.0070840000000003
75.79999999999995,-0.0089400000000003
76.0,-0.0108290000000002
76.19999999999993,-0.0110050000000003
76.39999999999998,-0.0091499999999999
76.60000000000002,-0.0052389999999999
76.79999999999995,-0.0001790000000001
77.0,0.0023929999999996
77.19999999999993,0.0016979999999997
77.39999999999998,-0.0012280000000002
77.60000000000002,-0.003959
77.79999999999995,-0.0073980000000002
78.0,-0.0085250000000001
78.19999999999993,-0.0071470000000002
78.39999999999998,-0.0052250000000002
78.60000000000002,-0.0028810000000003
78.79999999999995,-0.0042020000000002
79.0,-0.005058
79.19999999999993,-0.0053510000000001
79.39999999999998,-0.0058010000000003
79.60000000000002,-0.007956
79.79999999999995,-0.0081700000000002
80.0,-0.0084880000000002
80.19999999999993,-0.0101850000000003
80.39999999999998,-0.0108350000000001
80.60000000000002,-0.0105750000000002
80.79999999999995,-0.0091390000000002
81.0,-0.0062580000000003
81.19999999999993,-0.0040300000000002
81.39999999999998,-0.0014750000000001
81.60000000000002,-0.000909
81.79999999999995,-0.003457
82.0,-0.0086479999999999
82.19999999999993,-0.0126780000000001
82.39999999999998,-0.01628
82.60000000000002,-0.0181980000000003
82.79999999999995,-0.0166160000000004
83.0,-0.0126870000000001
83.19999999999993,-0.008226
83.39999999999998,-0.0047550000000002
83.60000000000002,-0.00217
83.79999999999995,-0.0022300000000003
84.0,-0.0052960000000004
84.19999999999993,-0.0069190000000003
84.39999999999998,-0.0091339999999999
84.60000000000002,-0.0113980000000002
84.79999999999995,-0.0097420000000001
85.0,-0.0062350000000002
85.19999999999993,-0.005227
85.39999999999998,-0.0026730000000001
85.60000000000002,-3.900000000012227e-05
85.79999999999995,-0.0004430000000001
86.0,-0.001516
86.19999999999993,-0.0021680000000001
86.39999999999998,-0.0030320000000001
86.60000000000002,-0.0026040000000002
86.79999999999995,-0.0021930000000001
87.0,-0.0032720000000003
87.19999999999993,-0.0050760000000003
87.39999999999998,-0.0089400000000003
87.60000000000002,-0.0126530000000002
87.79999999999995,-0.0168680000000001
88.0,-0.0171360000000002
88.19999999999993,-0.0170540000000003
88.39999999999998,-0.0145760000000003
88.60000000000002,-0.0136820000000001
88.79999999999995,-0.0131130000000001
89.0,-0.0139080000000002
89.19999999999993,-0.0127950000000001
89.39999999999998,-0.012159
89.60000000000002,-0.0123520000000003
89.79999999999995,-0.0112740000000002
90.0,-0.0125520000000003
90.19999999999992,-0.0117350000000002
90.39999999999998,-0.0107680000000001
90.60000000000002,-0.0096030000000002
90.79999999999995,-0.010412
91.0,-0.0095390000000001
91.19999999999992,-0.0118400000000002
91.39999999999998,-0.0141010000000001
91.60000000000002,-0.0164300000000001
91.79999999999995,-0.0163730000000001
92.0,-0.016928
92.19999999999992,-0.017093
92.39999999999998,-0.016378
92.60000000000002,-0.0131900000000002
92.79999999999995,-0.0101050000000002
93.0,-0.008801
93.19999999999992,-0.0071730000000003
93.39999999999998,-0.0090440000000002
93.60000000000002,-0.0094899999999999
93.79999999999995,-0.0111419999999999
94.0,-0.0105570000000003
94.19999999999992,-0.0086720000000002
94.39999999999998,-0.0040010000000001
94.60000000000002,-0.0024770000000002
94.79999999999995,-0.001236
95.0,-0.0005790000000001
95.19999999999992,-0.0024580000000002
95.39999999999998,-0.0035480000000003
95.60000000000002,-0.0044509999999999
95.79999999999995,-0.0019280000000003
96.0,0.0018539999999998
96.19999999999992,0.0039729999999997
96.39999999999998,0.0031669999999999
96.60000000000002,0.0021139999999997
96.79999999999995,-0.0012960000000004
97.0,-0.0057789999999999
97.19999999999992,-0.0081540000000002
97.39999999999998,-0.0073510000000003
97.60000000000002,-0.006472
97.79999999999995,-0.0055460000000002
98.0,-0.0048720000000002
98.19999999999992,-0.002558
98.39999999999998,-0.0003930000000003
98.60000000000002,0.0021059999999999
98.79999999999995,0.0039839999999999
99.0,0.0045029999999997
99.19999999999992,0.0043319999999997
99.39999999999998,0.0022569999999997
99.60000000000002,-0.0003779999999999
99.79999999999995,-0.0040490000000001
100.0,-0.006132
100.19999999999992,-0.0085550000000003
100.39999999999998,-0.011371
100.60000000000002,-0.0122050000000002
100.79999999999995,-0.009519
101.0,-0.0045620000000003
101.19999999999992,-0.0022950000000001
101.39999999999998,-0.0008940000000001
101.60000000000002,-0.000769
101.79999999999995,-0.0042910000000002
102.0,-0.0085350000000001
102.19999999999992,-0.0094130000000003
102.39999999999998,-0.009233
102.60000000000002,-0.0089960000000002
102.79999999999995,-0.0065509999999999
103.0,-0.0050799999999999
103.19999999999992,-0.003921
103.39999999999998,-0.003101
103.60000000000002,-0.00441
103.79999999999995,-0.007813
104.0,-0.0100770000000003
104.19999999999992,-0.0120710000000001
104.39999999999998,-0.0129960000000002
104.60000000000002,-0.0112900000000002
104.79999999999995,-0.0079660000000001
105.0,-0.0048840000000001
105.19999999999992,-0.0047050000000004
105.39999999999998,-0.0066390000000002
105.60000000000002,-0.0095940000000003
105.79999999999995,-0.009532
106.0,-0.0089540000000001
106.19999999999992,-0.0083200000000003
106.39999999999998,-0.0077260000000003
106.60000000000002,-0.0072050000000003
106.79999999999995,-0.006815
107.0,-0.0066550000000002
107.19999999999992,-0.0031540000000003
107.39999999999998,0.0007859999999997
107.60000000000002,0.0033299999999996
107.79999999999995,0.0024099999999998
108.0,-0.0009550000000002
108.19999999999992,-0.0033610000000003
108.39999999999998,-0.004391
108.60000000000002,-0.0062290000000002
108.79999999999995,-0.0079410000000001
109.0,-0.0081380000000002
109.19999999999992,-0.0098670000000002
109.39999999999998,-0.0118270000000002
109.60000000000002,-0.0095140000000002
109.79999999999995,-0.0060670000000002
110.0,-0.0040600000000003
110.19999999999992,-0.0034150000000003
110.39999999999998,-0.0053580000000001
110.60000000000002,-0.008372
110.79999999999995,-0.0107270000000001
111.0,-0.0119690000000001
111.19999999999992,-0.0121850000000001
111.39999999999998,-0.0101690000000003
111.60000000000002,-0.006812
111.79999999999995,-0.005719
112.0,-0.0072640000000001
112.19999999999992,-0.008607
112.39999999999998,-0.0088970000000001
112.60000000000002,-0.0093110000000002
112.79999999999995,-0.0093480000000001
113.0,-0.0075930000000004
113.19999999999992,-0.0066240000000004
113.39999999999998,-0.004124
113.60000000000002,-0.003117
113.79999999999995,-0.0043460000000004
114.0,-0.0031440000000002
114.19999999999992,-0.0039980000000001
114.39999999999998,-0.0079760000000002
114.60000000000002,-0.0130880000000002
114.79999999999995,-0.0158870000000002
115.0,-0.0188680000000003
115.19999999999992,-0.019149
115.39999999999998,-0.0167610000000002
115.60000000000002,-0.0139110000000002
115.79999999999995,-0.011349
116.0,-0.0090560000000001
116.19999999999992,-0.0068930000000002
116.39999999999998,-0.0074420000000001
116.60000000000002,-0.0087399999999999
116.79999999999995,-0.009274
117.0,-0.0100999999999999
117.19999999999992,-0.0086620000000001
117.39999999999998,-0.0079690000000001
117.60000000000002,-0.0096760000000002
117.79999999999995,-0.011479
118.0,-0.0106450000000002
118.19999999999992,-0.0106490000000003
118.39999999999998,-0.008283
118.60000000000002,-0.005443
118.79999999999995,-0.0016310000000001
119.0,-0.0026140000000003
119.19999999999992,-0.0053560000000003
119.39999999999998,-0.0097970000000002
119.60000000000002,-0.0110400000000003
119.79999999999995,-0.0128220000000003
120.0,-0.0138530000000001
120.19999999999992,-0.0145680000000001
120.39999999999998,-0.0135180000000003
120.60000000000002,-0.0126140000000001
120.79999999999995,-0.0125589999999999
121.0,-0.012963
121.19999999999992,-0.0143110000000001
121.39999999999998,-0.0152020000000003
121.60000000000002,-0.0140250000000001
121.79999999999995,-0.0129380000000001
122.0,-0.0088430000000001
122.19999999999992,-0.0040590000000002
122.39999999999998,-0.001335
122.60000000000002,-0.0012860000000003
122.79999999999995,-0.0021870000000001
123.0,-0.005748
123.19999999999992,-0.0088210000000001
123.39999999999998,-0.012788
123.60000000000002,-0.0158690000000003
123.79999999999995,-0.0172270000000001
124.0,-0.0160120000000003
124.19999999999992,-0.0128860000000003
124.39999999999998,-0.0075960000000003
124.60000000000002,-0.0028780000000003
124.79999999999995,0.0001809999999999
125.0,0.0026119999999996
125.19999999999992,-0.0001090000000001
125.39999999999998,-0.0038240000000002
125.60000000000002,-0.0075400000000001
125.79999999999995,-0.0087140000000003
126.0,-0.0105310000000002
126.19999999999992,-0.0088970000000001
126.39999999999998,-0.0067280000000002
126.60000000000002,-0.0035549999999999
126.79999999999995,-0.0031800000000004
127.0,-0.0034880000000003
127.19999999999992,-0.005605
127.39999999999998,-0.0087369999999999
127.60000000000002,-0.011514
127.79999999999995,-0.010736
128.0,-0.0127760000000001
128.19999999999993,-0.015174
128.39999999999998,-0.017239
128.60000000000002,-0.0177100000000001
128.79999999999995,-0.0195980000000002
129.0,-0.0147330000000001
129.19999999999993,-0.0091540000000001
129.39999999999998,-0.006536
129.60000000000002,-0.007098
129.79999999999995,-0.0067810000000001
130.0,-0.0100360000000003
130.19999999999993,-0.0136570000000002
130.39999999999998,-0.0129510000000001
130.60000000000002,-0.009309
130.79999999999995,-0.0086370000000002
131.0,-0.008375
131.19999999999993,-0.0091180000000004
131.39999999999998,-0.0121160000000002
131.60000000000002,-0.0152130000000001
131.79999999999995,-0.0158960000000001
132.0,-0.0166680000000001
132.19999999999993,-0.0180900000000003
132.39999999999998,-0.0177599999999999
132.60000000000002,-0.0174090000000002
132.79999999999995,-0.0159550000000003
133.0,-0.016073
133.19999999999993,-0.013322
133.39999999999998,-0.0083420000000002
133.60000000000002,-0.0056329999999999
133.79999999999995,-0.0066800000000002
134.0,-0.0058360000000003
134.19999999999993,-0.0051080000000003
134.39999999999998,-0.0078580000000001
134.60000000000002,-0.0112
134.79999999999995,-0.0104250000000001
135.0,-0.0104010000000003
135.19999999999993,-0.0125049999999999
135.39999999999998,-0.0113220000000002
135.60000000000002,-0.0099430000000002
135.79999999999995,-0.0104510000000002
136.0,-0.0121010000000003
136.19999999999993,-0.0127590000000004
136.39999999999998,-0.0156460000000002
136.60000000000002,-0.0154770000000001
136.79999999999995,-0.01587
137.0,-0.013576
137.19999999999993,-0.0096030000000002
137.39999999999998,-0.005757
137.60000000000002,-0.0052050000000001
137.79999999999995,-0.0068490000000003
138.0,-0.0105730000000003
138.19999999999993,-0.0126080000000001
138.39999999999998,-0.0141729999999999
138.60000000000002,-0.01621
138.79999999999995,-0.0178250000000002
139.0,-0.0170910000000001
139.19999999999993,-0.0172950000000002
139.39999999999998,-0.017913
139.60000000000002,-0.0181440000000003
139.79999999999995,-0.0158620000000002
140.0,-0.012493
140.19999999999993,-0.0099040000000001
140.39999999999998,-0.0090160000000003
140.60000000000002,-0.0084680000000001
140.79999999999995,-0.009087
141.0,-0.0128840000000001
141.19999999999993,-0.0171830000000001
141.39999999999998,-0.01804
141.60000000000002,-0.016067
141.79999999999995,-0.0138960000000003
142.0,-0.0118740000000001
142.19999999999993,-0.0106840000000003
142.39999999999998,-0.0118249999999999
142.60000000000002,-0.0126440000000003
142.79999999999995,-0.0134130000000003
143.0,-0.0128639999999999
143.19999999999993,-0.0133180000000003
143.39999999999998,-0.0123520000000003
143.60000000000002,-0.0141500000000003
143.79999999999995,-0.0150810000000003
144.0,-0.0168380000000003
144.19999999999993,-0.014628
144.39999999999998,-0.013757
144.60000000000002,-0.0122400000000002
144.79999999999995,-0.0130290000000004
145.0,-0.012852
145.19999999999993,-0.0156010000000001
145.39999999999998,-0.018437
145.60000000000002,-0.0214450000000003
145.79999999999995,-0.0211400000000003
146.0,-0.0223189999999999
146.19999999999993,-0.0201670000000002
146.39999999999998,-0.0143850000000003
146.60000000000002,-0.0131560000000003
146.79999999999995,-0.0139569999999999
147.0,-0.0145220000000003
147.19999999999993,-0.0173119999999999
147.39999999999998,-0.0214770000000004
147.60000000000002,-0.0186550000000003
147.79999999999995,-0.0151130000000003
148.0,-0.0125410000000001
148.19999999999993,-0.009217
148.39999999999998,-0.007559
148.60000000000002,-0.0094180000000001
148.79999999999995,-0.011006
149.0,-0.0120740000000001
149.19999999999993,-0.015832
149.39999999999998,-0.018726
149.60000000000002,-0.018885
149.79999999999995,-0.0158750000000003
150.0,-0.0109259999999999
150.19999999999993,-0.007076
150.39999999999998,-0.0051050000000003
150.60000000000002,-0.0041220000000001
150.79999999999995,-0.0084080000000001
151.0,-0.0133910000000003
151.19999999999993,-0.015435
151.39999999999998,-0.0141189999999999
151.60000000000002,-0.0131720000000004
151.79999999999995,-0.0112499999999999
152.0,-0.0092950000000002
152.19999999999993,-0.0084699999999999
152.39999999999998,-0.0084660000000003
152.60000000000002,-0.0088370000000002
152.79999999999995,-0.0088480000000004
153.0,-0.0107890000000003
153.19999999999993,-0.011959
153.39999999999998,-0.0146250000000001
153.60000000000002,-0.015803
153.79999999999995,-0.0147380000000003
154.0,-0.0109210000000001
154.19999999999993,-0.0079100000000003
154.39999999999998,-0.00387
154.60000000000002,-0.0021370000000002
154.79999999999995,-0.0021539999999999
155.0,-0.001408
155.19999999999993,0.0015959999999997
155.39999999999998,0.0033929999999999
155.60000000000002,0.0033399999999996
155.79999999999995,0.0004329999999996
156.0,-0.0041360000000003
156.19999999999993,-0.0100010000000003
156.39999999999998,-0.0157420000000003
156.60000000000002,-0.0138830000000003
156.79999999999995,-0.0095360000000002
157.0,-0.0060670000000002
157.19999999999993,-0.0032990000000001
157.39999999999998,-0.0017500000000003
157.60000000000002,-0.0059580000000001
157.79999999999995,-0.0106550000000003
158.0,-0.0137850000000003
158.19999999999993,-0.016499
158.39999999999998,-0.0158100000000001
158.60000000000002,-0.014583
158.79999999999995,-0.0123660000000001
159.0,-0.0127030000000001
159.19999999999993,-0.0139020000000003
159.39999999999998,-0.0163920000000001
159.60000000000002,-0.0183750000000002
159.79999999999995,-0.018126
160.0,-0.0140870000000004
160.19999999999993,-0.0095279999999999
160.39999999999998,-0.0083410000000001
160.60000000000002,-0.007721
160.79999999999995,-0.0097210000000003
161.0,-0.0154830000000001
161.19999999999993,-0.0218869999999999
161.39999999999998,-0.0243710000000003
161.60000000000002,-0.0228209999999999
161.79999999999995,-0.0199670000000002
162.0,-0.0161299999999999
162.19999999999993,-0.0116520000000002
162.39999999999998,-0.008709
162.60000000000002,-0.0098990000000003
162.79999999999995,-0.0120270000000002
163.0,-0.0122600000000003
163.19999999999993,-0.01268
163.39999999999998,-0.0130400000000001
163.60000000000002,-0.0115540000000002
163.79999999999995,-0.010027
164.0,-0.0108860000000001
164.19999999999993,-0.0120310000000003
164.39999999999998,-0.0140520000000003
164.60000000000002,-0.0165460000000003
164.79999999999995,-0.0200870000000001
165.0,-0.0216560000000001
165.19999999999993,-0.0215900000000002
165.39999999999998,-0.018663
165.60000000000002,-0.01668
165.79999999999995,-0.0153350000000003
166.0,-0.0141729999999999
166.19999999999993,-0.0135520000000002
166.39999999999998,-0.012461
166.60000000000002,-0.0109590000000001
166.79999999999995,-0.0101500000000003
167.0,-0.0117540000000002
167.19999999999993,-0.0129909999999999
167.39999999999998,-0.0149940000000001
167.60000000000002,-0.0183660000000003
167.79999999999995,-0.018879
168.0,-0.020045
168.19999999999993,-0.0215260000000001
168.39999999999998,-0.0230290000000001
168.60000000000002,-0.0220860000000002
168.79999999999995,-0.0208570000000003
169.0,-0.017903
169.19999999999993,-0.0140040000000003
169.39999999999998,-0.01261
169.60000000000002,-0.013109
169.79999999999995,-0.0165580000000002
170.0,-0.0162980000000003
170.19999999999993,-0.0158409999999999
170.39999999999998,-0.0141060000000003
170.60000000000002,-0.013138
170.79999999999995,-0.0085950000000001
171.0,-0.008995
171.19999999999993,-0.0100760000000001
171.39999999999998,-0.0134610000000003
171.60000000000002,-0.0171170000000002
171.79999999999995,-0.0235380000000002
172.0,-0.028753
172.19999999999993,-0.0332810000000001
172.39999999999998,-0.0351480000000004
172.60000000000002,-0.032969
172.79999999999995,-0.0295210000000003
173.0,-0.0241420000000003
173.19999999999993,-0.0203650000000004
173.39999999999998,-0.0166319999999999
173.60000000000002,-0.0158880000000003
173.79999999999995,-0.014831
174.0,-0.0152210000000003
174.19999999999993,-0.0142610000000003
174.39999999999998,-0.014688
174.60000000000002,-0.0134240000000001
174.79999999999995,-0.0134410000000002
175.0,-0.0141370000000002
175.19999999999993,-0.0191860000000003
175.39999999999998,-0.0211400000000003
175.60000000000002,-0.0233630000000002
175.79999999999995,-0.022869
176.0,-0.0205580000000002
176.19999999999993,-0.0135650000000002
176.39999999999998,-0.0095650000000002
176.60000000000002,-0.0085170000000003
176.79999999999995,-0.010094
177.0,-0.013071
177.19999999999993,-0.0169390000000002
177.39999999999998,-0.0217720000000003
177.60000000000002,-0.0222960000000003
177.79999999999995,-0.0220730000000002
178.0,-0.0214730000000002
178.19999999999993,-0.0196530000000003
178.39999999999998,-0.01804
178.60000000000002,-0.0182090000000001
178.79999999999995,-0.0175170000000002
179.0,-0.015152
179.19999999999993,-0.0164910000000002
179.39999999999998,-0.016769
179.60000000000002,-0.015546
179.79999999999995,-0.0140109999999999
180.0,-0.0140139999999999
180.19999999999996,-0.0151419999999999
180.4,-0.015886
180.6,-0.0180700000000002
180.79999999999995,-0.0193750000000001
181.0,-0.0180570000000002
181.19999999999996,-0.0125600000000001
181.4,-0.0101840000000001
181.6,-0.0102600000000001
181.79999999999995,-0.0114819999999999
182.0,-0.014828
182.19999999999996,-0.018663
182.4,-0.0173849999999999
182.6,-0.0144900000000003
182.79999999999995,-0.0134890000000003
183.0,-0.0122040000000001
183.19999999999996,-0.0134050000000001
183.4,-0.0159390000000003
183.6,-0.0189180000000002
183.79999999999995,-0.0208970000000001
184.0,-0.022834
184.19999999999996,-0.023384
184.4,-0.0240370000000003
184.6,-0.0230270000000003
184.79999999999995,-0.0196089999999999
185.0,-0.0153890000000003
185.19999999999996,-0.0112710000000002
185.4,-0.009843
185.6,-0.008909
185.79999999999995,-0.0088320000000003
186.0,-0.0111760000000002
186.19999999999996,-0.0129550000000002
186.4,-0.0128639999999999
186.6,-0.010644
186.79999999999995,-0.0125580000000002
187.0,-0.0143210000000002
187.19999999999996,-0.0164720000000002
187.4,-0.0184160000000002
187.6,-0.0231110000000001
187.79999999999995,-0.022987
188.0,-0.0215850000000004
188.19999999999996,-0.0210220000000003
188.4,-0.020674
188.6,-0.0169700000000001
188.79999999999995,-0.0141760000000004
189.0,-0.0132039999999999
189.19999999999996,-0.0094190000000002
189.4,-0.0064830000000002
189.6,-0.0053370000000003
189.79999999999995,-0.0087390000000002
190.0,-0.0103080000000002
190.19999999999996,-0.013306
190.4,-0.015044
190.6,-0.018561
190.79999999999995,-0.0194860000000001
191.0,-0.0200400000000002
191.19999999999996,-0.0219650000000002
191.4,-0.0242020000000002
191.6,-0.024429
191.79999999999995,-0.0231940000000001
192.0,-0.020477
192.19999999999996,-0.0143880000000002
192.4,-0.0078210000000003
192.6,-0.0042740000000001
192.79999999999995,-0.004331
193.0,-0.0076040000000001
193.19999999999996,-0.011222
193.4,-0.0151760000000003
193.6,-0.018513
193.79999999999995,-0.019943
194.0,-0.020477
194.19999999999996,-0.0212850000000002
194.4,-0.0223940000000002
194.6,-0.0215310000000004
194.79999999999995,-0.0196020000000003
195.0,-0.0164430000000002
195.19999999999996,-0.0176130000000003
195.4,-0.0169000000000001
195.6,-0.0155190000000002
195.79999999999995,-0.0133309999999999
196.0,-0.014078
196.19999999999996,-0.0136500000000001
196.4,-0.0159890000000002
196.6,-0.017846
196.79999999999995,-0.0193030000000002
197.0,-0.016302
197.19999999999996,-0.0130020000000001
197.4,-0.0090880000000002
197.6,-0.0079540000000002
197.79999999999995,-0.0068019999999999
198.0,-0.0076500000000003
198.19999999999996,-0.0101630000000003
198.4,-0.0136160000000002
198.6,-0.017338
198.79999999999995,-0.0228620000000003
199.0,-0.027085
199.19999999999996,-0.0274230000000001
199.4,-0.0255520000000002
199.6,-0.0226300000000003
199.79999999999995,-0.0172510000000003
200.0,-0.0137870000000002
200.19999999999996,-0.0124380000000003
200.4,-0.0101029999999999
200.6,-0.0088430000000001
200.79999999999995,-0.0089930000000002
201.0,-0.0110540000000001
201.19999999999996,-0.0114659999999999
201.4,-0.012855
201.6,-0.0142010000000003
201.79999999999995,-0.0148930000000002
202.0,-0.013112
202.19999999999996,-0.0125900000000003
202.4,-0.0128449999999999
202.6,-0.0141170000000001
202.79999999999995,-0.0148570000000001
203.0,-0.0156900000000002
203.19999999999996,-0.0153190000000003
203.4,-0.0169810000000003
203.6,-0.0165790000000001
203.79999999999995,-0.0188260000000002
204.0,-0.0234080000000003
204.19999999999996,-0.028118
204.4,-0.0300580000000003
204.6,-0.029754
204.79999999999995,-0.0296950000000002
205.0,-0.026262
205.19999999999996,-0.0239980000000001
205.4,-0.02313
205.6,-0.0244660000000003
205.79999999999995,-0.0239920000000002
206.0,-0.025576
206.19999999999996,-0.0245779999999999
206.4,-0.022755
206.6,-0.0205980000000001
206.79999999999995,-0.01899
207.0,-0.0170440000000002
207.19999999999996,-0.0175180000000003
207.4,-0.0192050000000003
207.6,-0.0219390000000001
207.79999999999995,-0.0236130000000001
208.0,-0.0233500000000002
208.19999999999996,-0.0234230000000001
208.4,-0.020623
208.6,-0.01723
208.79999999999995,-0.0137560000000003
209.0,-0.0124010000000001
209.19999999999996,-0.0109720000000002
209.4,-0.0108130000000001
209.6,-0.0104429999999999
209.79999999999995,-0.0108990000000002
210.0,-0.0125250000000001
210.19999999999996,-0.0152560000000003
210.4,-0.0177640000000001
210.6,-0.0200910000000003
210.79999999999995,-0.0224079999999999
211.0,-0.0234910000000003
211.19999999999996,-0.0229470000000002
211.4,-0.021306
211.6,-0.019991
211.79999999999995,-0.0217310000000003
212.0,-0.0222190000000002
212.19999999999996,-0.0207290000000002
212.4,-0.0177020000000003
212.6,-0.014151
212.79999999999995,-0.0089320000000001
213.0,-0.0043520000000003
213.19999999999996,-0.001532
213.4,-0.0015840000000002
213.6,-0.0022980000000001
213.79999999999995,-0.0043070000000002
214.0,-0.0106220000000001
214.19999999999996,-0.0172280000000002
214.4,-0.021741
214.6,-0.0253270000000003
214.79999999999995,-0.0241450000000003
215.0,-0.02176
215.19999999999996,-0.0179750000000002
215.4,-0.0178370000000001
215.6,-0.0170570000000003
215.79999999999995,-0.0207700000000001
216.0,-0.0207399999999999
216.19999999999996,-0.021983
216.4,-0.022974
216.6,-0.0262330000000003
216.79999999999995,-0.0281520000000004
217.0,-0.028102
217.19999999999996,-0.0261569999999999
217.4,-0.0209260000000002
217.6,-0.0176830000000003
217.79999999999995,-0.0155730000000002
218.0,-0.015848
218.19999999999996,-0.0167360000000003
218.4,-0.019041
218.6,-0.0207040000000002
218.79999999999995,-0.0188960000000002
219.0,-0.0162340000000003
219.19999999999996,-0.0132590000000001
219.4,-0.0123440000000001
219.6,-0.0101440000000003
219.79999999999995,-0.0100040000000003
220.0,-0.0135780000000003
220.19999999999996,-0.0191060000000002
220.4,-0.0213080000000003
220.6,-0.0220330000000004
220.79999999999995,-0.0212640000000003
221.0,-0.0191410000000002
221.19999999999996,-0.0169800000000002
221.4,-0.0159670000000002
221.6,-0.0162470000000003
221.79999999999995,-0.0169210000000004
222.0,-0.0167010000000003
222.19999999999996,-0.0167960000000002
222.4,-0.0177880000000003
222.6,-0.0188110000000003
222.79999999999995,-0.0197670000000003
223.0,-0.020369
223.19999999999996,-0.0181360000000001
223.4,-0.0167840000000003
223.6,-0.0158710000000001
223.79999999999995,-0.0163480000000002
224.0,-0.0157340000000001
224.19999999999996,-0.0176850000000001
224.4,-0.0175670000000001
224.6,-0.0165270000000004
224.79999999999995,-0.0156560000000003
225.0,-0.0179460000000002
225.19999999999996,-0.0201350000000002
225.4,-0.021592
225.6,-0.02055
225.79999999999995,-0.020442
226.0,-0.0189410000000003
226.19999999999996,-0.0183150000000003
226.4,-0.0173940000000003
226.6,-0.0186000000000001
226.79999999999995,-0.0188170000000003
227.0,-0.0183400000000002
227.19999999999996,-0.0156430000000002
227.4,-0.0155739999999999
227.6,-0.0170600000000002
227.79999999999995,-0.0182850000000001
228.0,-0.0200400000000002
228.19999999999996,-0.0211320000000001
228.4,-0.0207399999999999
228.6,-0.0175670000000001
228.79999999999995,-0.0144040000000003
229.0,-0.0120870000000001
229.19999999999996,-0.0132470000000002
229.4,-0.0174500000000001
229.6,-0.0209480000000001
229.79999999999995,-0.0249190000000001
230.0,-0.0281990000000003
230.19999999999996,-0.0293490000000002
230.4,-0.0257300000000002
230.6,-0.0238710000000001
230.79999999999995,-0.0241860000000002
231.0,-0.0225150000000002
231.19999999999996,-0.0200580000000001
231.4,-0.0201170000000003
231.6,-0.0210500000000002
231.79999999999995,-0.019044
232.0,-0.018208
232.19999999999996,-0.0172590000000001
232.4,-0.0165510000000002
232.6,-0.0166210000000002
232.79999999999995,-0.0178360000000004
233.0,-0.0194370000000003
233.19999999999996,-0.0192240000000003
233.4,-0.0206509999999999
233.6,-0.0198110000000002
233.79999999999995,-0.0168730000000003
234.0,-0.01479
234.19999999999996,-0.014777
234.4,-0.0153440000000002
234.6,-0.0165890000000001
234.79999999999995,-0.0172830000000003
235.0,-0.020397
235.19999999999996,-0.024048
235.4,-0.025042
235.6,-0.0237359999999999
235.79999999999995,-0.0249520000000003
236.0,-0.024852
236.19999999999996,-0.0248350000000003
236.4,-0.0266410000000001
236.6,-0.0297819999999999
236.79999999999995,-0.0339870000000002
237.0,-0.0361700000000002
237.19999999999996,-0.0374290000000003
237.4,-0.0353880000000002
237.6,-0.0331700000000001
237.79999999999995,-0.0284030000000004
238.0,-0.0231820000000002
238.19999999999996,-0.0175620000000003
238.4,-0.0151850000000002
238.6,-0.0147380000000003
238.79999999999995,-0.0140250000000001
239.0,-0.0148240000000003
239.19999999999996,-0.015279
239.4,-0.0148620000000003
239.6,-0.0150960000000002
239.79999999999995,-0.0177580000000001
240.0,-0.0203740000000003
240.19999999999996,-0.0222390000000003
240.4,-0.0236460000000002
240.6,-0.0237000000000002
240.79999999999995,-0.0220580000000003
241.0,-0.0197740000000004
241.19999999999996,-0.0195230000000004
241.4,-0.0197310000000001
241.6,-0.019422
241.79999999999995,-0.0189020000000001
242.0,-0.0190529999999999
242.19999999999996,-0.0190369999999999
242.4,-0.0177150000000003
242.6,-0.0174929999999999
242.79999999999995,-0.0194170000000002
243.0,-0.0217610000000001
243.19999999999996,-0.0247300000000003
243.4,-0.0260380000000002
243.6,-0.0258860000000002
243.79999999999995,-0.0227669999999999
244.0,-0.019803
244.19999999999996,-0.0160230000000001
244.4,-0.0158020000000003
244.6,-0.016426
244.79999999999995,-0.0212069999999999
245.0,-0.0225210000000002
245.19999999999996,-0.0249130000000001
245.4,-0.0264950000000001
245.6,-0.0267030000000003
245.79999999999995,-0.0258120000000001
246.0,-0.0270670000000001
246.19999999999996,-0.0247240000000004
246.4,-0.0220890000000002
246.6,-0.0221950000000004
246.79999999999995,-0.021436
247.0,-0.021436
247.19999999999996,-0.0231820000000002
247.4,-0.0242880000000003
247.6,-0.0230960000000002
247.79999999999995,-0.0208330000000001
248.0,-0.0199130000000002
248.19999999999996,-0.0194770000000001
248.4,-0.021303
248.6,-0.0244710000000001
248.79999999999995,-0.026135
249.0,-0.0244530000000002
249.19999999999996,-0.0248080000000001
249.4,-0.0232520000000002
249.6,-0.0201030000000002
249.79999999999995,-0.0201360000000003
250.0,-0.0199730000000002
250.19999999999996,-0.0190700000000001
250.4,-0.0182269999999999
250.6,-0.0174100000000003
250.79999999999995,-0.0174670000000003
251.0,-0.0199770000000003
251.19999999999996,-0.0217050000000003
251.4,-0.0215860000000001
251.6,-0.0237009999999999
251.79999999999995,-0.0229410000000003
252.0,-0.0220150000000001
252.19999999999996,-0.0193000000000003
252.4,-0.0199920000000002
252.6,-0.0203510000000002
252.79999999999995,-0.0217590000000003
253.0,-0.021427
253.19999999999996,-0.022879
253.4,-0.0241470000000001
253.6,-0.0224480000000002
253.79999999999995,-0.0217500000000003
254.0,-0.0234860000000001
254.19999999999996,-0.0252660000000002
254.4,-0.0253040000000002
254.6,-0.029379
254.79999999999995,-0.0325730000000001
255.0,-0.0337690000000003
255.19999999999996,-0.0347350000000004
255.4,-0.035886
255.6,-0.0353950000000002
255.79999999999995,-0.0328890000000003
256.0,-0.0279800000000003
256.19999999999993,-0.0233410000000002
256.4,-0.0200660000000003
256.6,-0.0168380000000003
256.79999999999995,-0.0154240000000003
257.0,-0.016013
257.19999999999993,-0.0163800000000002
257.4,-0.0163060000000001
257.6,-0.018132
257.79999999999995,-0.0207939999999999
258.0,-0.0245490000000003
258.19999999999993,-0.0254700000000003
258.4,-0.0245490000000003
258.6,-0.0233190000000003
258.79999999999995,-0.0240050000000002
259.0,-0.0250910000000001
259.19999999999993,-0.0261029999999999
259.4,-0.0284380000000004
259.6,-0.0294070000000004
259.79999999999995,-0.0262040000000003
260.0,-0.0213930000000002
260.19999999999993,-0.0184040000000003
260.4,-0.0181810000000002
260.6,-0.0175279999999999
260.79999999999995,-0.0192050000000003
261.0,-0.0217660000000003
261.19999999999993,-0.0252069999999999
261.4,-0.0273600000000002
261.6,-0.0300570000000002
261.79999999999995,-0.0311510000000003
262.0,-0.029919
262.19999999999993,-0.0312970000000003
262.4,-0.032286
262.6,-0.0307170000000001
262.79999999999995,-0.0268800000000002
263.0,-0.0224920000000001
263.19999999999993,-0.0205950000000001
263.4,-0.0185310000000002
263.6,-0.0194290000000001
263.79999999999995,-0.021592
264.0,-0.0266980000000001
264.19999999999993,-0.0271920000000003
264.4,-0.0270740000000002
264.6,-0.0265030000000003
264.79999999999995,-0.0270030000000001
265.0,-0.0257150000000003
265.19999999999993,-0.0250820000000002
265.4,-0.0226770000000002
265.6,-0.0204740000000001
265.79999999999995,-0.0167860000000001
266.0,-0.0171020000000003
266.19999999999993,-0.0173390000000002
266.4,-0.0199180000000001
266.6,-0.0205969999999999
266.79999999999995,-0.023279
267.0,-0.0240790000000004
267.19999999999993,-0.0243950000000001
267.4,-0.0219680000000002
267.6,-0.0228510000000001
267.79999999999995,-0.0238010000000001
268.0,-0.0246570000000003
268.19999999999993,-0.0231750000000001
268.4,-0.0238010000000001
268.6,-0.0230000000000001
268.79999999999995,-0.021697
269.0,-0.0200340000000003
269.19999999999993,-0.0221180000000003
269.4,-0.0232490000000002
269.6,-0.0238580000000001
269.79999999999995,-0.0241100000000002
270.0,-0.0241440000000001
270.19999999999993,-0.0235250000000002
270.4,-0.0256470000000001
270.6,-0.030294
270.79999999999995,-0.0328350000000003
271.0,-0.0340030000000002
271.19999999999993,-0.0333230000000002
271.4,-0.0310719999999999
271.6,-0.0256100000000003
271.79999999999995,-0.0226710000000003
272.0,-0.0231880000000002
272.19999999999993,-0.0245440000000001
272.4,-0.0253140000000002
272.6,-0.0271850000000002
272.79999999999995,-0.0278610000000001
273.0,-0.02597
273.19999999999993,-0.0241900000000003
273.4,-0.0229250000000003
273.6,-0.0216510000000003
273.79999999999995,-0.0229270000000001
274.0,-0.0250380000000003
274.19999999999993,-0.0263539999999999
274.4,-0.0268360000000003
274.6,-0.0274490000000002
274.79999999999995,-0.026866
275.0,-0.0258900000000004
275.19999999999993,-0.0263330000000001
275.4,-0.0267500000000002
275.6,-0.026119
275.79999999999995,-0.0256549999999999
276.0,-0.0253560000000003
276.19999999999993,-0.0253360000000002
276.4,-0.0259460000000002
276.6,-0.0258860000000002
276.79999999999995,-0.0251640000000001
277.0,-0.0262420000000003
277.19999999999993,-0.0245429999999999
277.4,-0.021913
277.6,-0.0193410000000002
277.79999999999995,-0.018358
278.0,-0.0169190000000001
278.19999999999993,-0.0163740000000003
278.4,-0.0166669999999999
278.6,-0.0189989999999999
278.79999999999995,-0.0212470000000002
279.0,-0.0215560000000003
279.19999999999993,-0.0216630000000002
279.4,-0.0215230000000001
279.6,-0.0188420000000002
279.79999999999995,-0.0148870000000003
280.0,-0.0134560000000001
280.19999999999993,-0.0135770000000001
280.4,-0.0129260000000002
280.6,-0.0139310000000003
280.79999999999995,-0.0155850000000001
281.0,-0.0143280000000003
281.19999999999993,-0.0144410000000001
281.4,-0.0160330000000001
281.6,-0.0171460000000003
281.79999999999995,-0.0174980000000002
282.0,-0.0194870000000002
282.19999999999993,-0.0222900000000003
282.4,-0.0241850000000001
282.6,-0.0247399999999999
282.79999999999995,-0.0258470000000001
283.0,-0.0254739999999999
283.19999999999993,-0.0245810000000004
283.4,-0.0226640000000002
283.6,-0.023619
283.79999999999995,-0.0239740000000003
284.0,-0.0243570000000001
284.19999999999993,-0.022154
284.4,-0.0216750000000001
284.6,-0.019565
284.79999999999995,-0.0184980000000001
285.0,-0.0190420000000002
285.19999999999993,-0.0208099999999999
285.4,-0.0218390000000003
285.6,-0.0236279999999999
285.79999999999995,-0.0253880000000004
286.0,-0.0268610000000002
286.19999999999993,-0.0280020000000003
286.4,-0.029716
286.6,-0.0303500000000003
286.79999999999995,-0.0298630000000001
287.0,-0.0268590000000004
287.19999999999993,-0.0242440000000003
287.4,-0.0220040000000003
287.6,-0.0213149999999999
287.79999999999995,-0.021652
288.0,-0.0222200000000003
288.19999999999993,-0.0223970000000002
288.4,-0.0252990000000004
288.6,-0.0270810000000003
288.79999999999995,-0.0247380000000001
289.0,-0.025741
289.19999999999993,-0.0253560000000003
289.4,-0.022008
289.6,-0.018914
289.79999999999995,-0.0184800000000002
290.0,-0.0167390000000002
290.19999999999993,-0.014707
290.4,-0.0123580000000003
290.6,-0.0124180000000002
290.79999999999995,-0.01513
291.0,-0.0185080000000001
291.19999999999993,-0.021131
291.4,-0.0242430000000002
291.6,-0.0236469999999999
291.79999999999995,-0.0218200000000003
292.0,-0.0181780000000002
292.19999999999993,-0.0177660000000003
292.4,-0.0171360000000002
292.6,-0.0185550000000001
292.79999999999995,-0.0196340000000003
293.0,-0.0206020000000002
293.19999999999993,-0.022164
293.4,-0.0228060000000001
293.6,-0.0249369999999999
293.79999999999995,-0.0268060000000001
294.0,-0.0295390000000002
294.19999999999993,-0.0307680000000001
294.4,-0.0314890000000001
294.6,-0.0312680000000002
294.79999999999995,-0.0290300000000001
295.0,-0.026879
295.19999999999993,-0.0248669999999999
295.4,-0.0224090000000001
295.6,-0.0193690000000001
295.79999999999995,-0.0203740000000003
296.0,-0.0203110000000004
296.19999999999993,-0.0213020000000003
296.4,-0.0245810000000004
296.6,-0.0261300000000002
296.79999999999995,-0.0253149999999999
297.0,-0.0253810000000003
297.19999999999993,-0.0251640000000001
297.4,-0.0232300000000003
297.6,-0.0239580000000003
297.79999999999995,-0.0240680000000002
298.0,-0.0239580000000003
298.19999999999993,-0.0241850000000001
298.4,-0.0240340000000003
298.6,-0.0225310000000003
298.79999999999995,-0.02123
299.0,-0.0197540000000002
299.19999999999993,-0.0171360000000002
299.4,-0.0176450000000003
299.5999999999999,-0.0163990000000004
299.79999999999995,-0.0138820000000003
299.9999999999999,-0.0112470000000004
300.19999999999993,-0.0110210000000003
300.4,-0.0096050000000005
300.5999999999999,-0.0098330000000004
300.79999999999995,-0.0110870000000005
300.9999999999999,-0.0150000000000003
301.19999999999993,-0.0183930000000003
301.4,-0.0213210000000003
301.5999999999999,-0.0228260000000004
301.79999999999995,-0.0224980000000003
301.9999999999999,-0.0192420000000004
302.19999999999993,-0.0167000000000003
302.4,-0.0143500000000005
302.5999999999999,-0.0130280000000004
302.79999999999995,-0.0120590000000004
302.9999999999999,-0.0119470000000003
303.19999999999993,-0.0116860000000005
303.4,-0.0104090000000003
303.5999999999999,-0.0068380000000003
303.79999999999995,-0.0062730000000004
303.9999999999999,-0.0072970000000003
304.19999999999993,-0.0065070000000004
304.4,-0.0064920000000003
304.5999999999999,-0.0077700000000004
304.79999999999995,-0.0088970000000003
304.9999999999999,-0.0091140000000005
305.19999999999993,-0.0088430000000003
305.4,-0.0071810000000003
305.5999999999999,-0.0073260000000003
305.79999999999995,-0.0079690000000003
305.9999999999999,-0.0094960000000003
306.19999999999993,-0.0090850000000004
306.4,-0.0104700000000004
306.5999999999999,-0.0117190000000004
306.79999999999995,-0.0123690000000005
306.9999999999999,-0.0118530000000003
307.19999999999993,-0.0144480000000004
307.4,-0.0163420000000005
307.5999999999999,-0.0161440000000003
307.79999999999995,-0.0166270000000003
307.9999999999999,-0.0166690000000004
308.19999999999993,-0.0165150000000005
308.4,-0.0148540000000003
308.5999999999999,-0.0140460000000004
308.79999999999995,-0.0131450000000004
308.9999999999999,-0.0127570000000003
309.19999999999993,-0.0118170000000004
309.4,-0.0123890000000004
309.5999999999999,-0.0145300000000003
309.79999999999995,-0.0147240000000004
309.9999999999999,-0.0130980000000004
310.19999999999993,-0.0124710000000003
310.4,-0.0133930000000004
310.5999999999999,-0.0134370000000003
310.79999999999995,-0.0100950000000004
310.9999999999999,-0.0089650000000003
311.19999999999993,-0.0060340000000003
311.4,-0.0026970000000003
311.5999999999999,0.0006899999999996
311.79999999999995,-0.0022330000000003
311.9999999999999,-0.0056690000000003
312.19999999999993,-0.0086680000000003
312.4,-0.0107880000000004
312.5999999999999,-0.0128470000000004
312.79999999999995,-0.0165370000000004
312.9999999999999,-0.0166300000000003
313.19999999999993,-0.0198490000000004
313.4,-0.0213990000000003
313.5999999999999,-0.0211800000000004
313.79999999999995,-0.0153240000000003
313.9999999999999,-0.0122160000000004
314.19999999999993,-0.0070140000000005
314.4,-0.0022160000000004
314.5999999999999,0.0010319999999994
314.79999999999995,0.0024129999999995
314.9999999999999,0.0030709999999996
315.19999999999993,0.0020519999999994
315.4,-0.0005940000000004
315.5999999999999,-0.0030430000000003
315.79999999999995,-0.0044570000000003
315.9999999999999,-0.0048040000000004
316.19999999999993,-0.0055190000000004
316.4,-0.0074700000000005
316.5999999999999,-0.0082480000000004
316.79999999999995,-0.0090870000000005
316.9999999999999,-0.0094480000000003
317.19999999999993,-0.0099740000000003
317.4,-0.0097600000000004
317.5999999999999,-0.0085110000000003
317.79999999999995,-0.0073850000000004
317.9999999999999,-0.0080510000000004
318.19999999999993,-0.0076900000000004
318.4,-0.0065720000000004
318.5999999999999,-0.0080130000000004
318.79999999999995,-0.0103930000000003
318.9999999999999,-0.0113700000000003
319.19999999999993,-0.0118990000000003
319.4,-0.0125640000000004
319.5999999999999,-0.0123770000000005
319.79999999999995,-0.0095490000000004
319.9999999999999,-0.0090330000000005
320.19999999999993,-0.0103490000000003
320.4,-0.0108180000000004
320.5999999999999,-0.0115720000000003
320.79999999999995,-0.0136350000000005
320.9999999999999,-0.0150720000000004
321.19999999999993,-0.0147160000000003
321.4,-0.0171580000000004
321.5999999999999,-0.0172440000000004
321.79999999999995,-0.0158650000000004
321.9999999999999,-0.0125750000000004
322.19999999999993,-0.0093850000000004
322.4,-0.0068520000000005
322.5999999999999,-0.0079970000000004
322.79999999999995,-0.0101820000000003
322.9999999999999,-0.0108470000000004
323.19999999999993,-0.0108010000000005
323.4,-0.0102010000000003
323.5999999999999,-0.0078690000000003
323.79999999999995,-0.0067450000000004
323.9999999999999,-0.0069630000000004
324.19999999999993,-0.0079160000000004
324.4,-0.0093340000000003
324.5999999999999,-0.0109940000000003
324.79999999999995,-0.0104930000000005
324.9999999999999,-0.0108620000000003
325.19999999999993,-0.0095930000000004
325.4,-0.0076650000000004
325.5999999999999,-0.0075090000000004
325.79999999999995,-0.0099430000000004
325.9999999999999,-0.0108320000000003
326.19999999999993,-0.0110730000000003
326.4,-0.0109230000000004
326.5999999999999,-0.0100430000000004
326.79999999999995,-0.0101750000000004
326.9999999999999,-0.0104660000000005
327.19999999999993,-0.0125400000000004
327.4,-0.0113550000000004
327.5999999999999,-0.0092580000000004
327.79999999999995,-0.0062470000000003
327.9999999999999,-0.0043110000000003
328.19999999999993,-0.0027020000000004
328.4,-0.0031350000000003
328.5999999999999,-0.0064900000000003
328.79999999999995,-0.0076840000000004
328.9999999999999,-0.0075820000000004
329.19999999999993,-0.0061050000000004
329.4,-0.0062890000000004
329.5999999999999,-0.0036950000000004
329.79999999999995,-0.0030670000000003
329.9999999999999,-0.0028650000000003
330.19999999999993,-0.0034730000000005
330.4,-0.0057900000000004
330.5999999999999,-0.0073930000000004
330.79999999999995,-0.0077960000000003
330.9999999999999,-0.0064560000000004
331.19999999999993,-0.0061180000000005
331.4,-0.0037510000000005
331.5999999999999,-0.0046590000000004
331.79999999999995,-0.0042700000000004
331.9999999999999,-0.0076500000000003
332.19999999999993,-0.0109300000000003
332.4,-0.0119260000000003
332.5999999999999,-0.0111110000000003
332.79999999999995,-0.0141870000000003
332.9999999999999,-0.0157950000000004
333.19999999999993,-0.0137950000000004
333.4,-0.0114450000000003
333.5999999999999,-0.0073230000000004
333.79999999999995,-0.0035440000000004
333.9999999999999,-0.0013800000000003
334.19999999999993,-0.0021160000000004
334.4,-0.0036860000000005
334.5999999999999,-0.0077130000000005
334.79999999999995,-0.0096510000000005
334.9999999999999,-0.0090400000000003
335.19999999999993,-0.0090000000000003
335.4,-0.0082920000000004
335.5999999999999,-0.0085040000000005
335.79999999999995,-0.0092940000000003
335.9999999999999,-0.0120300000000004
336.19999999999993,-0.0152160000000003
336.4,-0.0165460000000003
336.5999999999999,-0.0143610000000005
336.79999999999995,-0.0113400000000003
336.9999999999999,-0.0096910000000003
337.19999999999993,-0.0056250000000004
337.4,-0.0046630000000005
337.5999999999999,-0.0050360000000004
337.79999999999995,-0.0070720000000004
337.9999999999999,-0.0066700000000003
338.19999999999993,-0.0068370000000004
338.4,-0.0051450000000003
338.5999999999999,-0.0053770000000004
338.79999999999995,-0.0035840000000004
338.9999999999999,-0.0039090000000003
339.19999999999993,-0.0037630000000004
339.4,-0.0070000000000003
339.5999999999999,-0.0077650000000004
339.79999999999995,-0.0077150000000003
339.9999999999999,-0.0068360000000005
340.19999999999993,-0.0082180000000005
340.4,-0.0077710000000004
340.5999999999999,-0.0085230000000005
340.79999999999995,-0.0102860000000004
340.9999999999999,-0.0123910000000004
341.19999999999993,-0.0122300000000004
341.4,-0.0132670000000003
341.5999999999999,-0.0107080000000003
341.79999999999995,-0.0102000000000004
341.9999999999999,-0.0088970000000003
342.19999999999993,-0.0092150000000004
342.4,-0.0090140000000005
342.5999999999999,-0.0134460000000005
342.79999999999995,-0.0159560000000005
342.9999999999999,-0.0186320000000004
343.19999999999993,-0.0205810000000004
343.4,-0.0225350000000004
343.5999999999999,-0.0213060000000004
343.79999999999995,-0.0201260000000005
343.9999999999999,-0.0160690000000003
344.19999999999993,-0.0125630000000003
344.4,-0.0094260000000003
344.5999999999999,-0.0089040000000004
344.79999999999995,-0.0091270000000003
344.9999999999999,-0.0112700000000003
345.19999999999993,-0.0104220000000003
345.4,-0.0073370000000003
345.5999999999999,-0.0043400000000004
345.79999999999995,-0.0026580000000004
345.9999999999999,-0.0043950000000003
346.19999999999993,-0.0073040000000004
346.4,-0.0108960000000004
346.5999999999999,-0.0136390000000004
346.79999999999995,-0.0147590000000004
346.9999999999999,-0.0109440000000005
347.19999999999993,-0.0101040000000003
347.4,-0.0104590000000004
347.5999999999999,-0.0097420000000003
347.79999999999995,-0.0083890000000004
347.9999999999999,-0.0096030000000004
348.19999999999993,-0.0097010000000004
348.4,-0.0079550000000003
348.5999999999999,-0.0085130000000004
348.79999999999995,-0.0090050000000003
348.9999999999999,-0.0075540000000005
349.19999999999993,-0.0067310000000004
349.4,-0.0090540000000003
349.5999999999999,-0.0097370000000003
349.79999999999995,-0.0091770000000004
349.9999999999999,-0.0090860000000003
350.19999999999993,-0.0071150000000004
350.4,-0.0045340000000004
350.5999999999999,-0.0037430000000004
350.79999999999995,-0.0049420000000004
350.9999999999999,-0.0069060000000005
351.19999999999993,-0.0106770000000004
351.4,-0.0139540000000004
351.5999999999999,-0.0143310000000003
351.79999999999995,-0.0137740000000003
351.9999999999999,-0.0126150000000004
352.19999999999993,-0.0118410000000004
352.4,-0.0115400000000003
352.5999999999999,-0.0117910000000003
352.79999999999995,-0.0140380000000004
352.9999999999999,-0.0167960000000004
353.19999999999993,-0.0169010000000005
353.4,-0.0186710000000003
353.5999999999999,-0.0201090000000003
353.79999999999995,-0.0193440000000004
353.9999999999999,-0.0187470000000005
354.19999999999993,-0.0203090000000003
354.4,-0.0172530000000004
354.5999999999999,-0.0140490000000004
354.79999999999995,-0.0125610000000004
354.9999999999999,-0.0096170000000004
355.19999999999993,-0.0053810000000005
355.4,-0.0030920000000003
355.5999999999999,-0.0020350000000004
355.79999999999995,-0.0028700000000003
355.9999999999999,-0.0064060000000003
356.19999999999993,-0.0105720000000004
356.4,-0.0140320000000004
356.5999999999999,-0.0175750000000003
356.79999999999995,-0.0177390000000003
356.9999999999999,-0.0123310000000005
357.19999999999993,-0.0088040000000004
357.4,-0.0055670000000003
357.5999999999999,-0.0016960000000003
357.79999999999995,0.0019689999999996
357.9999999999999,0.0008259999999995
358.19999999999993,0.0023869999999994
358.4,0.0024459999999995
358.5999999999999,0.0013389999999995
358.79999999999995,-0.0020510000000004
358.9999999999999,-0.0055140000000004
359.19999999999993,-0.0101160000000004
359.4,-0.0121440000000003
359.5999999999999,-0.0097730000000004
359.79999999999995,-0.0057070000000003
359.9999999999999,-0.0015820000000004
360.19999999999993,0.0014169999999995
360.4,0.0035519999999995
360.5999999999999,0.0012549999999995
360.8,-0.0031110000000005
360.9999999999999,-0.0079880000000003
361.19999999999993,-0.0140830000000005
361.4,-0.0184380000000004
361.5999999999999,-0.0218750000000005
361.8,-0.0210900000000004
361.9999999999999,-0.0191430000000003
362.19999999999993,-0.0152140000000005
362.4,-0.0128800000000004
362.5999999999999,-0.0101930000000003
362.8,-0.0104210000000004
362.9999999999999,-0.0101700000000004
363.19999999999993,-0.0104310000000005
363.4,-0.0114880000000003
363.5999999999999,-0.0136950000000004
363.8,-0.0159860000000005
363.9999999999999,-0.0173940000000003
364.19999999999993,-0.0187310000000004
364.4,-0.0194920000000005
364.5999999999999,-0.0191020000000003
364.8,-0.0164180000000004
364.9999999999999,-0.0151520000000004
365.19999999999993,-0.0122290000000004
365.4,-0.0108930000000004
365.5999999999999,-0.0105620000000004
365.8,-0.0103910000000004
365.9999999999999,-0.0110210000000003
366.19999999999993,-0.0125050000000004
366.4,-0.0144430000000004
366.5999999999999,-0.0137110000000004
366.8,-0.0148550000000005
366.9999999999999,-0.0144010000000003
367.19999999999993,-0.0143970000000004
367.4,-0.0133840000000005
367.5999999999999,-0.0126010000000005
367.8,-0.0121490000000004
367.9999999999999,-0.0127190000000003
368.19999999999993,-0.0127610000000004
368.4,-0.0106190000000003
368.5999999999999,-0.0126630000000005
368.8,-0.0146700000000004
368.9999999999999,-0.0160470000000003
369.19999999999993,-0.0160700000000004
369.4,-0.0167830000000004
369.5999999999999,-0.0155070000000003
369.8,-0.0149680000000005
369.9999999999999,-0.0143810000000004
370.19999999999993,-0.0144550000000003
370.4,-0.0165420000000005
370.5999999999999,-0.0165610000000004
370.8,-0.0145850000000005
370.9999999999999,-0.0136640000000003
371.19999999999993,-0.0134000000000005
371.4,-0.0130990000000004
371.5999999999999,-0.0133630000000004
371.8,-0.0120440000000003
371.9999999999999,-0.0102730000000004
372.19999999999993,-0.0099560000000005
372.4,-0.0094520000000004
372.5999999999999,-0.0079630000000003
372.8,-0.0085510000000004
372.9999999999999,-0.0081230000000003
373.19999999999993,-0.0083270000000004
373.4,-0.0080520000000003
373.5999999999999,-0.0083170000000003
373.8,-0.0076100000000003
373.9999999999999,-0.0087570000000003
374.19999999999993,-0.0070460000000003
374.4,-0.0049890000000003
374.5999999999999,-0.0033910000000003
374.8,-0.0047870000000003
374.9999999999999,-0.0054310000000004
375.19999999999993,-0.0063980000000003
375.4,-0.0077870000000004
375.5999999999999,-0.0105200000000005
375.8,-0.0093020000000003
375.9999999999999,-0.0081810000000004
376.19999999999993,-0.0080880000000003
376.4,-0.0095360000000004
376.5999999999999,-0.0105070000000004
376.8,-0.0150840000000003
376.9999999999999,-0.0178000000000004
377.19999999999993,-0.0211890000000003
377.4,-0.0206310000000005
377.5999999999999,-0.0194410000000004
377.8,-0.0153120000000004
377.9999999999999,-0.0145750000000004
378.19999999999993,-0.0120380000000004
378.4,-0.0088920000000003
378.5999999999999,-0.0061820000000003
378.8,-0.0051080000000003
378.9999999999999,-0.0030760000000005
379.19999999999993,-0.0018440000000004
379.4,-0.0038410000000004
379.5999999999999,-0.0049500000000004
379.8,-0.0050120000000004
379.9999999999999,-0.0056980000000004
380.19999999999993,-0.0061480000000004
380.4,-0.0069330000000005
380.5999999999999,-0.0117740000000003
380.8,-0.0174180000000003
380.9999999999999,-0.0184460000000004
381.19999999999993,-0.0156170000000004
381.4,-0.0121700000000004
381.5999999999999,-0.0083830000000004
381.8,-0.0058000000000004
381.9999999999999,-0.0061450000000005
382.19999999999993,-0.0104280000000003
382.4,-0.0139370000000005
382.5999999999999,-0.0146560000000004
382.8,-0.0122000000000004
382.9999999999999,-0.0109500000000004
383.19999999999993,-0.0098720000000003
383.4,-0.0083190000000004
383.5999999999999,-0.0065790000000003
383.8,-0.0065010000000005
383.9999999999999,-0.0060080000000004
384.19999999999993,-0.0079790000000004
384.4,-0.0097780000000005
384.5999999999999,-0.0121370000000005
384.8,-0.0151970000000003
384.9999999999999,-0.0167480000000004
385.19999999999993,-0.0141750000000004
385.4,-0.0138920000000004
385.5999999999999,-0.0148330000000003
385.8,-0.0128380000000003
385.9999999999999,-0.0130080000000003
386.19999999999993,-0.0158840000000004
386.4,-0.0202340000000005
386.5999999999999,-0.0207390000000005
386.8,-0.0232220000000005
386.9999999999999,-0.0257130000000003
387.19999999999993,-0.0258950000000004
387.4,-0.0220290000000005
387.5999999999999,-0.0194580000000004
387.8,-0.0157380000000004
387.9999999999999,-0.0123630000000003
388.19999999999993,-0.0108520000000005
388.4,-0.0106250000000003
388.5999999999999,-0.0116030000000004
388.8,-0.0146300000000003
388.9999999999999,-0.0165190000000003
389.19999999999993,-0.0194020000000003
389.4,-0.0210310000000004
389.5999999999999,-0.0233310000000004
389.8,-0.0262860000000004
389.9999999999999,-0.0296100000000003
390.19999999999993,-0.0284840000000003
390.4,-0.0267380000000003
390.5999999999999,-0.0222500000000003
390.8,-0.0170550000000004
390.9999999999999,-0.0113450000000003
391.19999999999993,-0.0101250000000003
391.4,-0.0116990000000003
391.5999999999999,-0.0168780000000003
391.8,-0.0204470000000003
391.9999999999999,-0.0234050000000003
392.19999999999993,-0.0242330000000003
392.4,-0.0252540000000003
392.5999999999999,-0.0231770000000004
392.8,-0.0217410000000004
392.9999999999999,-0.0178910000000003
393.19999999999993,-0.0147320000000004
393.4,-0.0098730000000004
393.5999999999999,-0.0081890000000004
393.8,-0.0079760000000004
393.9999999999999,-0.0108470000000004
394.19999999999993,-0.0144450000000004
394.4,-0.0176990000000003
394.5999999999999,-0.0185950000000003
394.8,-0.0175450000000003
394.9999999999999,-0.0176750000000003
395.19999999999993,-0.0157750000000003
395.4,-0.0142210000000004
395.5999999999999,-0.0125530000000004
395.8,-0.0126560000000004
395.9999999999999,-0.0104160000000004
396.19999999999993,-0.0094360000000004
396.4,-0.0086030000000003
396.5999999999999,-0.0090660000000004
396.8,-0.0094310000000004
396.9999999999999,-0.0124940000000004
397.19999999999993,-0.0140590000000004
397.4,-0.0170920000000003
397.5999999999999,-0.0180110000000004
397.8,-0.0178460000000004
397.9999999999999,-0.0155300000000004
398.19999999999993,-0.0141040000000003
398.4,-0.0122780000000004
398.5999999999999,-0.0116260000000003
398.8,-0.0118140000000004
398.9999999999999,-0.0109550000000004
399.19999999999993,-0.0132360000000004
399.4,-0.0160090000000003
399.5999999999999,-0.0198240000000005
399.8,-0.0230180000000004
399.9999999999999,-0.0270170000000005
400.19999999999993,-0.0265530000000004
400.4,-0.0237100000000003
400.5999999999999,-0.0195120000000004
400.8,-0.0146970000000004
400.9999999999999,-0.0126560000000004
401.19999999999993,-0.0127200000000005
401.4,-0.0144690000000005
401.5999999999999,-0.0162220000000004
401.8,-0.0190990000000004
401.9999999999999,-0.0204480000000004
402.19999999999993,-0.0210970000000003
402.4,-0.0180210000000005
402.5999999999999,-0.0166600000000003
402.8,-0.0144800000000004
402.9999999999999,-0.0127970000000003
403.19999999999993,-0.0112910000000003
403.4,-0.0126240000000004
403.5999999999999,-0.0138280000000003
403.8,-0.0134270000000005
403.9999999999999,-0.0143300000000003
404.19999999999993,-0.0157760000000004
404.4,-0.0184260000000004
404.5999999999999,-0.0161800000000005
404.8,-0.0169360000000005
404.9999999999999,-0.0147120000000005
405.19999999999993,-0.0155990000000003
405.4,-0.0144130000000004
405.5999999999999,-0.0176780000000005
405.8,-0.0179360000000003
405.9999999999999,-0.0179080000000004
406.19999999999993,-0.0155090000000004
406.4,-0.0169780000000003
406.5999999999999,-0.0179090000000003
406.8,-0.0191770000000004
406.9999999999999,-0.0204390000000003
407.19999999999993,-0.0208060000000003
407.4,-0.0202110000000004
407.5999999999999,-0.0183640000000004
407.8,-0.0186810000000003
407.9999999999999,-0.0201990000000005
408.19999999999993,-0.0219890000000004
408.4,-0.0217480000000003
408.5999999999999,-0.0238410000000004
408.8,-0.0247840000000003
408.9999999999999,-0.0244970000000004
409.19999999999993,-0.0209040000000004
409.4,-0.0168890000000003
409.5999999999999,-0.0132300000000005
409.8,-0.0127220000000003
409.9999999999999,-0.0122740000000003
410.19999999999993,-0.0150930000000004
410.4,-0.0176040000000003
410.5999999999999,-0.0184860000000004
410.8,-0.0169930000000004
410.9999999999999,-0.0184550000000003
411.19999999999993,-0.0180090000000003
411.4,-0.0183850000000003
411.5999999999999,-0.0200150000000003
411.8,-0.0213610000000004
411.9999999999999,-0.0204610000000005
412.19999999999993,-0.0173930000000004
412.4,-0.0139180000000003
412.5999999999999,-0.0108580000000004
412.8,-0.0109090000000005
412.9999999999999,-0.0117390000000003
413.19999999999993,-0.0165490000000003
413.4,-0.0213140000000005
413.5999999999999,-0.0252340000000004
413.8,-0.0252840000000005
413.9999999999999,-0.0225470000000003
414.19999999999993,-0.0193750000000003
414.4,-0.0158580000000003
414.5999999999999,-0.0116090000000004
414.8,-0.0093690000000004
414.9999999999999,-0.0113420000000004
415.19999999999993,-0.0133180000000003
415.4,-0.0159680000000004
415.5999999999999,-0.0202570000000004
415.8,-0.0230280000000004
415.9999999999999,-0.0229100000000004
416.19999999999993,-0.0214590000000003
416.4,-0.0226590000000004
416.5999999999999,-0.0236660000000004
416.8,-0.0228190000000003
416.9999999999999,-0.0228370000000004
417.19999999999993,-0.0237960000000003
417.4,-0.0203480000000004
417.5999999999999,-0.0133990000000003
417.8,-0.0098190000000004
417.9999999999999,-0.0094960000000003
418.19999999999993,-0.0107650000000003
418.4,-0.0124700000000004
418.5999999999999,-0.0154790000000004
418.8,-0.0191950000000005
418.9999999999999,-0.0186220000000003
419.19999999999993,-0.0169740000000004
419.4,-0.0161000000000004
419.5999999999999,-0.0174210000000003
419.8,-0.0183640000000004
419.9999999999999,-0.0202180000000005
420.19999999999993,-0.0220510000000004
420.4,-0.0261860000000004
420.5999999999999,-0.0281160000000004
420.8,-0.0274420000000004
420.9999999999999,-0.0258010000000004
421.19999999999993,-0.0234280000000004
421.4,-0.0198830000000003
421.5999999999999,-0.0157750000000003
421.8,-0.0122500000000003
421.9999999999999,-0.0116560000000003
422.19999999999993,-0.0116140000000004
422.4,-0.0111620000000003
422.5999999999999,-0.0119480000000005
422.8,-0.0141350000000004
422.9999999999999,-0.0177000000000004
423.19999999999993,-0.0194450000000003
423.4,-0.0197990000000003
423.5999999999999,-0.0207350000000003
423.8,-0.0204370000000004
423.9999999999999,-0.0177020000000003
424.19999999999993,-0.0168930000000004
424.4,-0.0156580000000003
424.5999999999999,-0.0136980000000004
424.8,-0.0135610000000003
424.9999999999999,-0.0142020000000004
425.19999999999993,-0.0149480000000004
425.4,-0.0159430000000004
425.5999999999999,-0.0171100000000004
425.8,-0.0168910000000004
425.9999999999999,-0.0158370000000003
426.19999999999993,-0.0146450000000004
426.4,-0.0148160000000003
426.5999999999999,-0.0150080000000003
426.8,-0.0151730000000003
426.9999999999999,-0.0138460000000004
427.19999999999993,-0.0122080000000004
427.4,-0.0127550000000005
427.5999999999999,-0.0166650000000003
427.8,-0.0201100000000005
427.9999999999999,-0.0230450000000004
428.19999999999993,-0.0260220000000004
428.4,-0.0282030000000004
428.5999999999999,-0.0263970000000004
428.8,-0.0248620000000003
428.9999999999999,-0.0238870000000004
429.19999999999993,-0.0249030000000003
429.4,-0.0248060000000003
429.5999999999999,-0.0231420000000004
429.8,-0.0209770000000004
429.9999999999999,-0.0196830000000003
430.19999999999993,-0.0183900000000003
430.4,-0.0166460000000003
430.5999999999999,-0.0161680000000004
430.8,-0.0154180000000003
430.9999999999999,-0.0177570000000004
431.19999999999993,-0.0170940000000003
431.4,-0.0171370000000004
431.5999999999999,-0.0180230000000003
431.8,-0.0201540000000004
431.9999999999999,-0.0178830000000003
432.19999999999993,-0.0187400000000004
432.4,-0.0182500000000003
432.5999999999999,-0.0177320000000005
432.8,-0.0184350000000004
432.9999999999999,-0.0203740000000003
433.19999999999993,-0.0188080000000003
433.4,-0.0186770000000005
433.5999999999999,-0.0173450000000003
433.8,-0.0162190000000004
433.9999999999999,-0.0160330000000004
434.19999999999993,-0.0175820000000004
434.4,-0.0181520000000003
434.5999999999999,-0.0206420000000004
434.8,-0.0221140000000004
434.9999999999999,-0.0228530000000004
435.19999999999993,-0.0259170000000004
435.4,-0.0284310000000003
435.5999999999999,-0.0295110000000005
435.8,-0.0275900000000004
435.9999999999999,-0.0272960000000004
436.19999999999993,-0.0241890000000004
436.4,-0.0217640000000003
436.5999999999999,-0.0197100000000003
436.8,-0.0194010000000004
436.9999999999999,-0.0189290000000004
437.19999999999993,-0.0195160000000005
437.4,-0.0226200000000005
437.5999999999999,-0.0275590000000003
437.8,-0.0281840000000004
437.9999999999999,-0.0262760000000004
438.19999999999993,-0.0229590000000003
438.4,-0.0202720000000005
438.5999999999999,-0.0156300000000004
438.8,-0.0182010000000003
438.9999999999999,-0.0197480000000003
439.19999999999993,-0.0206580000000005
439.4,-0.0176390000000004
439.5999999999999,-0.0161690000000003
439.8,-0.0141490000000004
439.9999999999999,-0.0149610000000004
440.19999999999993,-0.0177980000000004
440.4,-0.0213640000000003
440.5999999999999,-0.0225670000000004
440.8,-0.0216790000000004
440.9999999999999,-0.0207940000000004
441.19999999999993,-0.0169370000000004
441.4,-0.0148740000000004
441.5999999999999,-0.0157100000000003
441.8,-0.0176730000000004
441.9999999999999,-0.0184230000000005
442.19999999999993,-0.0213190000000005
442.4,-0.0215860000000003
442.5999999999999,-0.0205630000000003
442.8,-0.0203390000000003
442.9999999999999,-0.0213310000000004
443.19999999999993,-0.0209470000000004
443.4,-0.0216630000000004
443.5999999999999,-0.0233910000000003
443.8,-0.0234860000000003
443.9999999999999,-0.0244320000000004
444.19999999999993,-0.0260640000000005
444.4,-0.0272450000000004
444.5999999999999,-0.0255940000000003
444.8,-0.0241090000000003
444.9999999999999,-0.0225910000000004
445.19999999999993,-0.0231120000000004
445.4,-0.0231590000000003
445.5999999999999,-0.0241190000000004
445.8,-0.0243860000000004
445.9999999999999,-0.0243090000000003
446.19999999999993,-0.0191450000000004
446.4,-0.0152870000000004
446.5999999999999,-0.0109950000000005
446.8,-0.0073410000000004
446.9999999999999,-0.0026870000000003
447.19999999999993,-0.0032550000000004
447.4,-0.0044740000000005
447.5999999999999,-0.0082390000000003
447.8,-0.0131770000000004
447.9999999999999,-0.0144680000000003
448.19999999999993,-0.0150680000000005
448.4,-0.0160000000000004
448.5999999999999,-0.0171350000000003
448.8,-0.0153520000000004
448.9999999999999,-0.0141790000000003
449.19999999999993,-0.0120270000000004
449.4,-0.0110490000000005
449.5999999999999,-0.0088370000000004
449.8,-0.0101820000000003
449.9999999999999,-0.0130160000000003
450.19999999999993,-0.0180800000000003
450.4,-0.0210470000000004
450.5999999999999,-0.0229920000000003
450.8,-0.0234840000000005
450.9999999999999,-0.0247130000000004
451.19999999999993,-0.0224150000000005
451.4,-0.0202240000000004
451.5999999999999,-0.0180560000000005
451.8,-0.0179080000000004
451.9999999999999,-0.0176590000000005
452.19999999999993,-0.0197750000000003
452.4,-0.0210210000000004
452.5999999999999,-0.0227070000000004
452.8,-0.0218960000000003
452.9999999999999,-0.0208420000000004
453.19999999999993,-0.0191900000000004
453.4,-0.0183790000000003
453.5999999999999,-0.0182480000000004
453.8,-0.0193290000000003
453.9999999999999,-0.0212880000000004
454.19999999999993,-0.0241450000000005
454.4,-0.0260540000000004
454.5999999999999,-0.0268390000000005
454.8,-0.0259320000000005
454.9999999999999,-0.0256690000000003
455.19999999999993,-0.0252580000000004
455.4,-0.0243790000000003
455.5999999999999,-0.0227450000000004
455.8,-0.0200940000000005
455.9999999999999,-0.0182730000000004
456.19999999999993,-0.0154260000000003
456.4,-0.0143530000000005
456.5999999999999,-0.0127020000000004
456.8,-0.0123980000000003
456.9999999999999,-0.0113020000000003
457.19999999999993,-0.0116740000000004
457.4,-0.0137150000000003
457.5999999999999,-0.0190560000000004
457.8,-0.0219000000000004
457.9999999999999,-0.0231910000000004
458.19999999999993,-0.0242410000000004
458.4,-0.0240540000000004
458.5999999999999,-0.0229290000000004
458.8,-0.0242060000000003
458.9999999999999,-0.0249610000000004
459.19999999999993,-0.0256190000000005
459.4,-0.0259520000000004
459.5999999999999,-0.0266910000000004
459.8,-0.0259390000000003
459.9999999999999,-0.0263100000000005
460.19999999999993,-0.0256460000000005
460.4,-0.0262550000000003
460.5999999999999,-0.0268740000000005
460.8,-0.0289540000000003
460.9999999999999,-0.0288430000000003
461.19999999999993,-0.0304430000000004
461.4,-0.0279940000000005
461.5999999999999,-0.0239650000000004
461.8,-0.0202690000000003
461.9999999999999,-0.0188110000000003
462.19999999999993,-0.0174180000000003
462.4,-0.0169970000000003
462.5999999999999,-0.0183770000000005
462.8,-0.0193840000000005
462.9999999999999,-0.0207580000000005
463.19999999999993,-0.0194630000000004
463.4,-0.0194500000000004
463.5999999999999,-0.0195540000000005
463.8,-0.0204000000000004
463.9999999999999,-0.0215220000000004
464.19999999999993,-0.0239670000000005
464.4,-0.0238830000000003
464.5999999999999,-0.0230330000000005
464.8,-0.0214060000000004
464.9999999999999,-0.0204200000000003
465.19999999999993,-0.0190000000000003
465.4,-0.0205680000000003
465.5999999999999,-0.0247680000000003
465.8,-0.0289960000000004
465.9999999999999,-0.0309730000000003
466.19999999999993,-0.0310950000000003
466.4,-0.0330680000000003
466.5999999999999,-0.0326460000000004
466.8,-0.0318990000000003
466.9999999999999,-0.0310410000000003
467.19999999999993,-0.0314420000000004
467.4,-0.0269490000000003
467.5999999999999,-0.0219040000000003
467.8,-0.0186550000000005
467.9999999999999,-0.0177900000000004
468.19999999999993,-0.0187120000000005
468.4,-0.0242230000000003
468.5999999999999,-0.0279750000000005
468.8,-0.0298000000000004
468.9999999999999,-0.0304220000000003
469.19999999999993,-0.0297850000000003
469.4,-0.0273240000000003
469.5999999999999,-0.0263140000000003
469.8,-0.0251960000000004
469.9999999999999,-0.0233410000000005
470.19999999999993,-0.0220380000000004
470.4,-0.0224120000000003
470.5999999999999,-0.0226710000000003
470.8,-0.0221850000000003
470.9999999999999,-0.0217480000000003
471.19999999999993,-0.0218800000000003
471.4,-0.0224940000000004
471.5999999999999,-0.0239860000000005
471.8,-0.0247490000000003
471.9999999999999,-0.0252860000000003
472.19999999999993,-0.0265920000000003
472.4,-0.0265890000000004
472.5999999999999,-0.0264810000000004
472.8,-0.0280400000000005
472.9999999999999,-0.0285380000000003
473.19999999999993,-0.0274570000000005
473.4,-0.0252430000000003
473.5999999999999,-0.0251390000000004
473.8,-0.0256400000000003
473.9999999999999,-0.0274730000000005
474.19999999999993,-0.0282040000000003
474.4,-0.0279840000000004
474.5999999999999,-0.0241440000000003
474.8,-0.0219240000000005
474.9999999999999,-0.0195690000000003
475.19999999999993,-0.0181810000000004
475.4,-0.0174570000000005
475.5999999999999,-0.0189690000000004
475.8,-0.0191920000000003
475.9999999999999,-0.0218390000000003
476.19999999999993,-0.0260860000000004
476.4,-0.0288040000000004
476.5999999999999,-0.0302550000000003
476.8,-0.0314860000000003
476.9999999999999,-0.0299310000000003
477.19999999999993,-0.0261740000000003
477.4,-0.0256690000000003
477.5999999999999,-0.0244660000000003
477.8,-0.0210540000000003
477.9999999999999,-0.0184480000000004
478.19999999999993,-0.0164610000000005
478.4,-0.0137990000000003
478.5999999999999,-0.0133560000000003
478.8,-0.0165760000000003
478.9999999999999,-0.0202630000000003
479.19999999999993,-0.0220990000000005
479.4,-0.0233810000000003
479.5999999999999,-0.0241620000000004
479.8,-0.0249550000000005
479.9999999999999,-0.0252710000000004
480.19999999999993,-0.0266670000000004
480.4,-0.0270690000000004
480.5999999999999,-0.0265630000000003
480.8,-0.0242840000000004
480.9999999999999,-0.0242550000000003
481.19999999999993,-0.0268720000000004
481.4,-0.0291380000000003
481.5999999999999,-0.0279320000000005
481.8,-0.0253780000000003
481.9999999999999,-0.0237610000000003
482.19999999999993,-0.0215630000000004
482.4,-0.0195110000000005
482.5999999999999,-0.0202320000000004
482.8,-0.0229550000000005
482.9999999999999,-0.0228980000000005
483.19999999999993,-0.0224700000000004
483.4,-0.0240600000000004
483.5999999999999,-0.0270410000000003
483.8,-0.0281110000000004
483.9999999999999,-0.0283810000000004
484.19999999999993,-0.0296050000000003
484.4,-0.0307910000000004
484.5999999999999,-0.0310980000000005
484.8,-0.0321220000000004
484.9999999999999,-0.0356410000000004
485.19999999999993,-0.0359470000000003
485.4,-0.0351940000000003
485.5999999999999,-0.0333910000000003
485.8,-0.0344900000000003
485.9999999999999,-0.0360920000000004
486.19999999999993,-0.0368220000000003
486.4,-0.0346050000000004
486.5999999999999,-0.0328520000000003
486.8,-0.0276220000000004
486.9999999999999,-0.0226280000000005
487.19999999999993,-0.0214770000000004
487.4,-0.0242040000000003
487.5999999999999,-0.0263070000000005
487.8,-0.0276970000000005
487.9999999999999,-0.0274090000000004
488.19999999999993,-0.0274030000000005
488.4,-0.0251160000000003
488.5999999999999,-0.0261530000000003
488.8,-0.0299650000000004
488.9999999999999,-0.0293400000000003
489.19999999999993,-0.0263190000000004
489.4,-0.0242700000000004
489.5999999999999,-0.0204990000000004
489.8,-0.0158200000000003
489.9999999999999,-0.0157380000000004
490.19999999999993,-0.0177750000000003
490.4,-0.0213000000000003
490.5999999999999,-0.0247640000000004
490.8,-0.0274180000000003
490.9999999999999,-0.0278220000000004
491.19999999999993,-0.0271520000000005
491.4,-0.0256500000000003
491.5999999999999,-0.0218610000000003
491.8,-0.0187700000000003
491.9999999999999,-0.0174140000000004
492.19999999999993,-0.0162180000000005
492.4,-0.0143130000000004
492.5999999999999,-0.0158400000000005
492.8,-0.0169520000000005
492.9999999999999,-0.0182230000000003
493.19999999999993,-0.0202430000000004
493.4,-0.0213520000000004
493.5999999999999,-0.0220200000000003
493.8,-0.0232780000000003
493.9999999999999,-0.0262710000000003
494.19999999999993,-0.0290240000000003
494.4,-0.0342640000000005
494.5999999999999,-0.0366940000000004
494.8,-0.0367940000000004
494.9999999999999,-0.0341360000000003
495.19999999999993,-0.0300230000000003
495.4,-0.0264200000000003
495.5999999999999,-0.0254040000000004
495.8,-0.0266730000000003
495.9999999999999,-0.0297050000000005
496.19999999999993,-0.0332990000000004
496.4,-0.0329720000000004
496.5999999999999,-0.0307340000000004
496.8,-0.0300340000000003
496.9999999999999,-0.0261970000000004
497.19999999999993,-0.0227820000000005
497.4,-0.0219510000000004
497.5999999999999,-0.0233500000000004
497.8,-0.0227220000000003
497.9999999999999,-0.0240470000000003
498.19999999999993,-0.0236590000000003
498.4,-0.0242050000000004
498.5999999999999,-0.0247970000000004
498.8,-0.0267980000000003
498.9999999999999,-0.0294740000000004
499.19999999999993,-0.0331570000000003
499.4,-0.0335810000000005
499.5999999999999,-0.0327830000000004
499.8,-0.0319930000000003
499.9999999999999,-0.0296700000000005
500.19999999999993,-0.0274500000000004
500.4,-0.0278700000000005
500.5999999999999,-0.0282190000000004
500.8,-0.0286370000000004
500.9999999999999,-0.0280090000000003
501.19999999999993,-0.0277340000000003
501.4,-0.0267990000000004
501.5999999999999,-0.0277200000000004
501.8,-0.0279570000000004
501.9999999999999,-0.0284580000000003
502.19999999999993,-0.0276870000000004
502.4,-0.0279990000000003
502.5999999999999,-0.0270340000000004
502.8,-0.0262520000000003
502.9999999999999,-0.0256540000000005
503.19999999999993,-0.0258840000000004
503.4,-0.0259320000000005
503.5999999999999,-0.0257740000000004
503.8,-0.0241410000000004
503.9999999999999,-0.0215800000000003
504.19999999999993,-0.0204820000000003
504.4,-0.0189750000000004
504.5999999999999,-0.0174990000000003
504.8,-0.0176900000000004
504.9999999999999,-0.0207460000000003
505.19999999999993,-0.0208340000000004
505.4,-0.0202630000000003
505.5999999999999,-0.0202560000000004
505.8,-0.0207810000000003
505.9999999999999,-0.0209260000000004
506.19999999999993,-0.0217390000000003
506.4,-0.0231470000000004
506.5999999999999,-0.0258710000000004
506.8,-0.0288700000000003
506.9999999999999,-0.0310380000000003
507.19999999999993,-0.0319610000000003
507.4,-0.0310370000000004
507.5999999999999,-0.0266220000000003
507.8,-0.0240450000000003
507.9999999999999,-0.0229530000000004
508.19999999999993,-0.0248710000000005
508.4,-0.0280590000000005
508.5999999999999,-0.0312770000000004
508.8,-0.0295110000000005
508.9999999999999,-0.0282330000000003
509.19999999999993,-0.0244050000000004
509.4,-0.0191280000000004
509.5999999999999,-0.0160970000000004
509.8,-0.0166870000000003
509.9999999999999,-0.0160040000000003
510.19999999999993,-0.0174260000000003
510.4,-0.0218520000000004
510.5999999999999,-0.0266050000000004
510.8,-0.0275170000000004
510.9999999999999,-0.0266210000000004
511.19999999999993,-0.0237640000000003
511.4,-0.0223240000000004
511.5999999999999,-0.0205840000000003
511.8,-0.0208290000000004
511.99999999999983,-0.0216760000000004
512.1999999999998,-0.0253890000000003
512.3999999999999,-0.0281500000000003
512.5999999999999,-0.0308150000000004
512.8,-0.0323080000000004
512.9999999999998,-0.0354970000000003
513.1999999999998,-0.0353450000000004
513.3999999999999,-0.0349170000000005
513.5999999999999,-0.0352140000000005
513.8,-0.0370000000000003
513.9999999999998,-0.0371870000000005
514.1999999999998,-0.0381440000000004
514.3999999999999,-0.0371090000000005
514.5999999999999,-0.0346100000000004
514.8,-0.0314740000000004
514.9999999999998,-0.0310460000000003
515.1999999999998,-0.0308280000000005
515.3999999999999,-0.0326430000000004
515.5999999999999,-0.0323300000000004
515.8,-0.0304570000000004
515.9999999999998,-0.0290660000000004
516.1999999999998,-0.0276380000000004
516.3999999999999,-0.0238020000000003
516.5999999999999,-0.0223700000000004
516.8,-0.0237610000000003
516.9999999999998,-0.0245560000000004
517.1999999999998,-0.0264800000000005
517.3999999999999,-0.0283450000000005
517.5999999999999,-0.0303100000000005
517.8,-0.0306490000000003
517.9999999999998,-0.0274560000000003
518.1999999999998,-0.0244870000000003
518.3999999999999,-0.0223820000000003
518.5999999999999,-0.0216270000000005
518.8,-0.0218950000000004
518.9999999999998,-0.0249950000000003
519.1999999999998,-0.0286990000000004
519.3999999999999,-0.0329060000000003
519.5999999999999,-0.0348090000000005
519.8,-0.0372290000000004
519.9999999999998,-0.0388100000000004
520.1999999999998,-0.0396090000000004
520.3999999999999,-0.0401100000000005
520.5999999999999,-0.0399400000000005
520.8,-0.0391080000000003
520.9999999999998,-0.0368060000000003
521.1999999999998,-0.0357210000000003
521.3999999999999,-0.0346230000000005
521.5999999999999,-0.0360900000000004
521.8,-0.0359120000000003
521.9999999999998,-0.0352090000000004
522.1999999999998,-0.0333070000000004
522.3999999999999,-0.0309880000000004
522.5999999999999,-0.0269240000000003
522.8,-0.0258270000000004
522.9999999999998,-0.0264320000000004
523.1999999999998,-0.0277340000000003
523.3999999999999,-0.0299600000000004
523.5999999999999,-0.0345640000000004
523.8,-0.0345150000000005
523.9999999999998,-0.0342360000000003
524.1999999999998,-0.0301140000000004
524.3999999999999,-0.0256880000000003
524.5999999999999,-0.0190680000000005
524.8,-0.0188090000000005
524.9999999999998,-0.0205700000000004
525.1999999999998,-0.0268640000000004
525.3999999999999,-0.0310720000000004
525.5999999999999,-0.0351780000000003
525.8,-0.0351770000000004
525.9999999999998,-0.0319780000000005
526.1999999999998,-0.0272210000000003
526.3999999999999,-0.0240360000000003
526.5999999999999,-0.0225410000000003
526.8,-0.0220760000000004
526.9999999999998,-0.0226480000000004
527.1999999999998,-0.0241460000000004
527.3999999999999,-0.0261050000000004
527.5999999999999,-0.0260910000000005
527.8,-0.0255560000000003
527.9999999999998,-0.0262400000000004
528.1999999999998,-0.0266020000000004
528.3999999999999,-0.0268090000000005
528.5999999999999,-0.0286630000000003
528.8,-0.0321570000000004
528.9999999999998,-0.0346770000000005
529.1999999999998,-0.0360330000000004
529.3999999999999,-0.0385100000000004
529.5999999999999,-0.0392780000000003
529.8,-0.0369190000000003
529.9999999999998,-0.0350950000000003
530.1999999999998,-0.0363820000000003
530.3999999999999,-0.0354960000000004
530.5999999999999,-0.0347990000000004
530.8,-0.0361950000000004
530.9999999999998,-0.0366890000000004
531.1999999999998,-0.0337510000000005
531.3999999999999,-0.0310760000000003
531.5999999999999,-0.0302390000000003
531.8,-0.0274380000000005
531.9999999999998,-0.0246870000000003
532.1999999999998,-0.0232340000000004
532.3999999999999,-0.0228610000000004
532.5999999999999,-0.0220980000000003
532.8,-0.0239620000000004
532.9999999999998,-0.0251330000000005
533.1999999999998,-0.0268750000000004
533.3999999999999,-0.0271640000000004
533.5999999999999,-0.0268680000000003
533.8,-0.0257770000000003
533.9999999999998,-0.0264130000000004
534.1999999999998,-0.0276010000000004
534.3999999999999,-0.0288480000000004
534.5999999999999,-0.0294260000000003
534.8,-0.0292640000000004
534.9999999999998,-0.0297000000000005
535.1999999999998,-0.0267680000000003
535.3999999999999,-0.0262080000000004
535.5999999999999,-0.0269550000000005
535.8,-0.0313050000000003
535.9999999999998,-0.0326220000000003
536.1999999999998,-0.0349180000000004
536.3999999999999,-0.0352770000000004
536.5999999999999,-0.0365140000000003
536.8,-0.0338560000000003
536.9999999999998,-0.0352760000000005
537.1999999999998,-0.0366700000000004
537.3999999999999,-0.0385160000000004
537.5999999999999,-0.0388000000000003
537.8,-0.0399280000000004
537.9999999999998,-0.0389430000000003
538.1999999999998,-0.0370950000000003
538.3999999999999,-0.0354320000000003
538.5999999999999,-0.0343180000000005
538.8,-0.0346230000000005
538.9999999999998,-0.0331270000000003
539.1999999999998,-0.0332460000000003
539.3999999999999,-0.0329300000000003
539.5999999999999,-0.0335960000000004
539.8,-0.0352300000000003
539.9999999999998,-0.0379160000000005
540.1999999999998,-0.0391040000000004
540.3999999999999,-0.0411750000000004
540.5999999999999,-0.0408130000000004
540.8,-0.0375560000000003
540.9999999999998,-0.0352610000000004
541.1999999999998,-0.0354540000000003
541.3999999999999,-0.0353040000000004
541.5999999999999,-0.0363390000000003
541.8,-0.0373050000000003
541.9999999999998,-0.0373610000000004
542.1999999999998,-0.0366080000000004
542.3999999999999,-0.0343170000000003
542.5999999999999,-0.0316260000000003
542.8,-0.0305770000000005
542.9999999999998,-0.0315990000000003
543.1999999999998,-0.0323690000000005
543.3999999999999,-0.0345060000000003
543.5999999999999,-0.0375720000000003
543.8,-0.0399780000000005
543.9999999999998,-0.0392320000000003
544.1999999999998,-0.0385500000000005
544.3999999999999,-0.0370170000000005
544.5999999999999,-0.0351920000000003
544.8,-0.0303010000000003
544.9999999999998,-0.0271620000000003
545.1999999999998,-0.0242520000000003
545.3999999999999,-0.0228140000000003
545.5999999999999,-0.0210540000000003
545.8,-0.0217460000000004
545.9999999999998,-0.0239740000000003
546.1999999999998,-0.0249500000000004
546.3999999999999,-0.0276600000000004
546.5999999999999,-0.0293000000000003
546.8,-0.0314120000000004
546.9999999999998,-0.0294280000000004
547.1999999999998,-0.0292160000000003
547.3999999999999,-0.0286420000000005
547.5999999999999,-0.0287210000000004
547.8,-0.0283670000000004
547.9999999999998,-0.0313690000000004
548.1999999999998,-0.0320130000000005
548.3999999999999,-0.0291860000000003
548.5999999999999,-0.0268000000000003
548.8,-0.0263810000000004
548.9999999999998,-0.0241300000000004
549.1999999999998,-0.0261210000000005
549.3999999999999,-0.0291720000000004
549.5999999999999,-0.0331330000000005
549.8,-0.0340030000000004
549.9999999999998,-0.0349200000000005
550.1999999999998,-0.0346710000000003
550.3999999999999,-0.0350420000000004
550.5999999999999,-0.0352300000000003
550.8,-0.0362490000000004
550.9999999999998,-0.0367540000000004
551.1999999999998,-0.0382850000000003
551.3999999999999,-0.0409990000000004
551.5999999999999,-0.0412680000000005
551.8,-0.0415790000000004
551.9999999999998,-0.0424810000000004
552.1999999999998,-0.0403960000000003
552.3999999999999,-0.0375030000000005
552.5999999999999,-0.0363920000000004
552.8,-0.0346200000000003
552.9999999999998,-0.0316690000000003
553.1999999999998,-0.0306320000000004
553.3999999999999,-0.0284790000000003
553.5999999999999,-0.0277490000000004
553.8,-0.0286860000000004
553.9999999999998,-0.0311040000000004
554.1999999999998,-0.0327620000000004
554.3999999999999,-0.0342630000000003
554.5999999999999,-0.0355590000000003
554.8,-0.0352340000000004
554.9999999999998,-0.0337680000000004
555.1999999999998,-0.0325390000000003
555.3999999999999,-0.0342830000000005
555.5999999999999,-0.0328950000000003
555.8,-0.0310850000000004
555.9999999999998,-0.0321460000000004
556.1999999999998,-0.0326380000000003
556.3999999999999,-0.0304540000000004
556.5999999999999,-0.0299150000000003
556.8,-0.0306710000000003
556.9999999999998,-0.0315390000000004
557.1999999999998,-0.0318790000000004
557.3999999999999,-0.0326330000000003
557.5999999999999,-0.0328870000000003
557.8,-0.0340330000000004
557.9999999999998,-0.0332830000000003
558.1999999999998,-0.0325280000000003
558.3999999999999,-0.0319800000000003
558.5999999999999,-0.0293190000000003
558.8,-0.0279660000000003
558.9999999999998,-0.0260150000000003
559.1999999999998,-0.0248380000000003
559.3999999999999,-0.0219910000000003
559.5999999999999,-0.0212950000000005
559.8,-0.0197440000000004
559.9999999999998,-0.0194530000000003
560.1999999999998,-0.0209090000000005
560.3999999999999,-0.0235310000000004
560.5999999999999,-0.0259810000000004
560.8,-0.0254090000000004
560.9999999999998,-0.0271130000000003
561.1999999999998,-0.0264180000000004
561.3999999999999,-0.0246680000000003
561.5999999999999,-0.0242390000000003
561.8,-0.0270300000000003
561.9999999999998,-0.0283260000000005
562.1999999999998,-0.0286450000000004
562.3999999999999,-0.0302960000000003
562.5999999999999,-0.0322140000000004
562.8,-0.0330290000000004
562.9999999999998,-0.0301850000000003
563.1999999999998,-0.0277840000000004
563.3999999999999,-0.0276810000000005
563.5999999999999,-0.0266010000000003
563.8,-0.0268740000000005
563.9999999999998,-0.0293450000000004
564.1999999999998,-0.0326400000000004
564.3999999999999,-0.0335710000000004
564.5999999999999,-0.0347830000000004
564.8,-0.0344820000000003
564.9999999999998,-0.0337650000000004
565.1999999999998,-0.0314190000000005
565.3999999999999,-0.0301120000000003
565.5999999999999,-0.0289030000000003
565.8,-0.0291300000000003
565.9999999999998,-0.0284130000000004
566.1999999999998,-0.0290020000000004
566.3999999999999,-0.0305590000000004
566.5999999999999,-0.0328360000000005
566.8,-0.0360710000000004
566.9999999999998,-0.0391460000000003
567.1999999999998,-0.0394470000000004
567.3999999999999,-0.0377950000000004
567.5999999999999,-0.0336290000000003
567.8,-0.0296170000000004
567.9999999999998,-0.0294230000000004
568.1999999999998,-0.0331030000000003
568.3999999999999,-0.0357050000000003
568.5999999999999,-0.0401800000000003
568.8,-0.0408330000000003
568.9999999999998,-0.0390340000000004
569.1999999999998,-0.0370800000000004
569.3999999999999,-0.0384550000000003
569.5999999999999,-0.0394780000000003
569.8,-0.0400790000000004
569.9999999999998,-0.0413640000000004
570.1999999999998,-0.0435430000000003
570.3999999999999,-0.0427920000000003
570.5999999999999,-0.0390770000000004
570.8,-0.0350770000000004
570.9999999999998,-0.0326150000000005
571.1999999999998,-0.0319710000000004
571.3999999999999,-0.0302970000000004
571.5999999999999,-0.0310220000000003
571.8,-0.0332160000000003
571.9999999999998,-0.0345280000000003
572.1999999999998,-0.0346140000000003
572.3999999999999,-0.0355830000000003
572.5999999999999,-0.0357380000000004
572.8,-0.0363790000000003
572.9999999999998,-0.0376090000000004
573.1999999999998,-0.0366030000000003
573.3999999999999,-0.0347330000000003
573.5999999999999,-0.0352280000000004
573.7999999999997,-0.0359650000000004
573.9999999999998,-0.0360390000000003
574.1999999999998,-0.0345650000000004
574.3999999999999,-0.0340770000000003
574.5999999999999,-0.0339460000000004
574.7999999999997,-0.0331710000000005
574.9999999999998,-0.0321960000000003
575.1999999999998,-0.0342360000000003
575.3999999999999,-0.0386720000000004
575.5999999999999,-0.0393300000000005
575.7999999999997,-0.0406890000000004
575.9999999999998,-0.0428460000000003
576.1999999999998,-0.0431630000000005
576.3999999999999,-0.0388430000000004
576.5999999999999,-0.0378340000000003
576.7999999999997,-0.0380440000000004
576.9999999999998,-0.0386740000000003
577.1999999999998,-0.0386040000000005
577.3999999999999,-0.0408490000000003
577.5999999999999,-0.0398670000000003
577.7999999999997,-0.0380230000000003
577.9999999999998,-0.0356710000000004
578.1999999999998,-0.0352350000000003
578.3999999999999,-0.0339190000000004
578.5999999999999,-0.0343690000000003
578.7999999999997,-0.0344090000000003
578.9999999999998,-0.0354490000000005
579.1999999999998,-0.0352280000000004
579.3999999999999,-0.0354980000000004
579.5999999999999,-0.0352310000000004
579.7999999999997,-0.0368270000000003
579.9999999999998,-0.0377130000000003
580.1999999999998,-0.0387090000000003
580.3999999999999,-0.0392210000000003
580.5999999999999,-0.0407100000000004
580.7999999999997,-0.0400600000000004
580.9999999999998,-0.0381440000000004
581.1999999999998,-0.0366070000000005
581.3999999999999,-0.0365000000000004
581.5999999999999,-0.0366090000000003
581.7999999999997,-0.0351970000000003
581.9999999999998,-0.0352850000000004
582.1999999999998,-0.0348050000000004
582.3999999999999,-0.0354840000000005
582.5999999999999,-0.0355230000000004
582.7999999999997,-0.0391550000000004
582.9999999999998,-0.0395290000000003
583.1999999999998,-0.0417340000000003
583.3999999999999,-0.0412130000000003
583.5999999999999,-0.0398670000000003
583.7999999999997,-0.0375240000000003
583.9999999999998,-0.0368680000000003
584.1999999999998,-0.0366450000000004
584.3999999999999,-0.0395520000000004
584.5999999999999,-0.0436700000000003
584.7999999999997,-0.0449800000000004
584.9999999999998,-0.0445340000000005
585.1999999999998,-0.0423440000000003
585.3999999999999,-0.0396050000000003
585.5999999999999,-0.0357900000000004
585.7999999999997,-0.0327690000000004
585.9999999999998,-0.0306050000000004
586.1999999999998,-0.0270560000000004
586.3999999999999,-0.0244390000000003
586.5999999999999,-0.0246190000000003
586.7999999999997,-0.0252560000000003
586.9999999999998,-0.0259110000000004
587.1999999999998,-0.0279060000000004
587.3999999999999,-0.0286970000000004
587.5999999999999,-0.0297810000000005
587.7999999999997,-0.0300330000000004
587.9999999999998,-0.0303300000000004
588.1999999999998,-0.0288320000000004
588.3999999999999,-0.0281770000000003
588.5999999999999,-0.0263740000000003
588.7999999999997,-0.0259200000000003
588.9999999999998,-0.0245090000000003
589.1999999999998,-0.0266490000000003
589.3999999999999,-0.0301260000000003
589.5999999999999,-0.0333680000000005
589.7999999999997,-0.0344600000000003
589.9999999999998,-0.0348630000000005
590.1999999999998,-0.0344150000000005
590.3999999999999,-0.0340640000000003
590.5999999999999,-0.0343380000000004
590.7999999999997,-0.0369740000000005
590.9999999999998,-0.0404000000000004
591.1999999999998,-0.0430810000000003
591.3999999999999,-0.0419540000000004
591.5999999999999,-0.0389400000000004
591.7999999999997,-0.0363680000000004
591.9999999999998,-0.0349360000000005
592.1999999999998,-0.0330160000000003
592.3999999999999,-0.0331370000000004
592.5999999999999,-0.0335670000000003
592.7999999999997,-0.0336400000000003
592.9999999999998,-0.0346470000000003
593.1999999999998,-0.0348370000000004
593.3999999999999,-0.0323030000000004
593.5999999999999,-0.0304140000000003
593.7999999999997,-0.0298950000000004
593.9999999999998,-0.0289180000000004
594.1999999999998,-0.0265770000000005
594.3999999999999,-0.0275320000000003
594.5999999999999,-0.0285120000000003
594.7999999999997,-0.0297250000000004
594.9999999999998,-0.0302550000000003
595.1999999999998,-0.0342460000000004
595.3999999999999,-0.0362460000000004
595.5999999999999,-0.0401850000000003
595.7999999999997,-0.0424860000000004
595.9999999999998,-0.0442440000000003
596.1999999999998,-0.0433500000000004
596.3999999999999,-0.0429180000000004
596.5999999999999,-0.0402430000000004
596.7999999999997,-0.0388910000000004
596.9999999999998,-0.0400650000000004
597.1999999999998,-0.0415020000000003
597.3999999999999,-0.0421560000000005
597.5999999999999,-0.0425010000000003
597.7999999999997,-0.0409910000000004
597.9999999999998,-0.0386330000000003
598.1999999999998,-0.0363780000000004
598.3999999999999,-0.0341480000000005
598.5999999999999,-0.0329340000000004
598.7999999999997,-0.0320830000000005
598.9999999999998,-0.0320070000000003
