Time (s),Shift (nm)
0.0,0.0
0.1999999999999886,0.0032399999999999
0.4000000000000341,0.0040759999999999
0.6000000000000227,0.0028419999999997
0.8000000000000114,0.0033449999999999
1.0,0.0057069999999996
1.1999999999999886,0.0064999999999999
1.400000000000034,0.0059449999999996
1.6000000000000227,0.0067249999999998
1.8000000000000114,0.0060859999999998
2.0,0.0041009999999999
2.1999999999999886,0.0019069999999996
2.400000000000034,0.0002209999999998
2.6000000000000227,0.0008479999999999
2.800000000000012,0.00353
3.0,0.0067249999999998
3.1999999999999886,0.0094859999999998
3.400000000000034,0.011174
3.6000000000000227,0.0105869999999996
3.8000000000000114,0.0081149999999996
4.0,0.0055309999999999
4.199999999999989,0.0034459999999998
4.400000000000034,0.0030989999999997
4.600000000000023,0.002507
4.800000000000011,0.0023539999999999
5.0,0.0030489999999998
5.199999999999989,0.0039739999999999
5.400000000000034,0.0031339999999997
5.600000000000023,7.699999999966067e-05
5.800000000000011,-0.0026200000000002
6.0,-0.0060090000000001
6.199999999999989,-0.009001
6.400000000000034,-0.0095140000000002
6.600000000000023,-0.0066269999999999
6.800000000000011,-0.0047170000000003
7.0,-0.0042440000000003
7.199999999999989,-0.0054820000000002
7.400000000000034,-0.006307
7.600000000000023,-0.0063660000000003
7.800000000000011,-0.0063060000000003
8.0,-0.004051
8.199999999999989,-0.0017900000000001
8.400000000000034,0.000496
8.600000000000023,-0.0002620000000002
8.800000000000011,-0.0015550000000001
9.0,-0.002987
9.199999999999989,-0.0030960000000002
9.400000000000034,-0.0026170000000003
9.600000000000025,0.000423
9.800000000000011,0.003282
10.0,0.0052279999999997
10.199999999999989,0.0054549999999999
10.400000000000034,0.0029869999999996
10.600000000000025,-0.0003220000000001
10.800000000000011,-0.0012449999999999
11.0,-0.0030650000000003
11.199999999999989,-0.0037510000000002
11.400000000000034,-0.0039709999999999
11.600000000000025,-0.0044170000000001
11.800000000000011,-0.0048099999999999
12.0,-0.0053469999999999
12.199999999999989,-0.0031480000000003
12.400000000000034,-0.00062
12.600000000000025,0.0008919999999998
12.800000000000011,-0.0008650000000001
13.0,-0.002761
13.199999999999989,-0.0061620000000002
13.400000000000034,-0.0091640000000001
13.600000000000025,-0.0104490000000003
13.800000000000011,-0.0084650000000001
14.0,-0.0059390000000001
14.199999999999989,-0.0042690000000003
14.400000000000034,-0.0054370000000001
14.600000000000025,-0.0051960000000002
14.800000000000011,-0.0058100000000003
15.0,-0.0052910000000001
15.199999999999989,-0.0058130000000002
15.400000000000034,-0.0038120000000003
15.600000000000025,-0.0036119999999999
15.800000000000011,-0.0028100000000002
16.0,-0.0025650000000001
16.19999999999999,-0.0007740000000002
16.400000000000034,0.0003379999999997
16.600000000000023,0.0026949999999996
16.80000000000001,0.0024009999999998
17.0,0.0021279999999999
17.19999999999999,0.0010219999999998
17.400000000000034,0.0001689999999996
17.600000000000023,-0.0046110000000001
17.80000000000001,-0.0078170000000001
18.0,-0.0123280000000001
18.19999999999999,-0.0156390000000001
18.400000000000038,-0.0180930000000003
18.600000000000023,-0.0164159999999999
18.80000000000001,-0.011972
19.0,-0.0061930000000001
19.19999999999999,-0.0017789999999999
19.400000000000038,0.0006379999999999
19.600000000000023,-0.0003589999999999
19.80000000000001,-0.0059230000000001
20.0,-0.0101430000000002
20.19999999999999,-0.0114400000000003
20.400000000000038,-0.0111810000000001
20.600000000000023,-0.0085300000000003
20.80000000000001,-0.0056540000000002
21.0,-0.0053819999999999
21.19999999999999,-0.0054830000000003
21.400000000000038,-0.002529
21.600000000000023,-0.0012050000000001
21.80000000000001,-0.0007130000000001
22.0,0.000569
22.19999999999999,0.0012309999999997
22.400000000000038,-0.0015810000000002
22.600000000000023,-0.0032420000000001
22.80000000000001,-0.0035519999999999
23.0,-0.0033380000000002
23.19999999999999,-0.0052780000000001
23.400000000000038,-0.0071240000000001
23.600000000000023,-0.0096169999999999
23.80000000000001,-0.0087239999999999
24.0,-0.0098160000000002
24.19999999999999,-0.0082740000000001
24.400000000000038,-0.0058220000000002
24.600000000000023,-0.0031660000000002
24.80000000000001,-0.0023170000000001
25.0,0.0003229999999998
25.19999999999999,0.0014579999999999
25.400000000000038,0.0022429999999999
25.600000000000023,0.0019719999999998
25.80000000000001,0.001001
26.0,-0.00116
26.19999999999999,-0.003257
26.400000000000038,-0.0053870000000002
26.600000000000023,-0.0038710000000001
26.80000000000001,-0.0031799999999999
27.0,-0.0027460000000001
27.19999999999999,-0.002526
27.400000000000038,-0.0024010000000003
27.600000000000023,-0.0050000000000003
27.80000000000001,-0.0067730000000003
28.0,-0.0061080000000002
28.19999999999999,-0.0049920000000001
28.400000000000038,-0.0044889999999999
28.600000000000023,-0.0038770000000001
28.80000000000001,-0.002879
29.0,-0.0034180000000003
29.19999999999999,-0.002942
29.400000000000038,-0.0015230000000001
29.600000000000023,-0.0019270000000002
29.80000000000001,-0.0028070000000002
30.0,-0.0041510000000002
30.19999999999999,-0.0076590000000003
30.400000000000038,-0.0107159999999999
30.600000000000023,-0.0100280000000001
30.80000000000001,-0.0096890000000002
31.0,-0.006577
31.19999999999999,-0.0030550000000002
31.400000000000038,-0.000753
31.600000000000023,-0.0022010000000003
31.80000000000001,-0.0037670000000002
32.0,-0.0064410000000001
32.19999999999999,-0.008191
32.400000000000034,-0.007889
32.60000000000002,-0.005881
32.80000000000001,-0.0050190000000003
33.0,-0.0053480000000001
33.19999999999999,-0.0055840000000002
33.400000000000034,-0.0069069999999999
33.60000000000002,-0.0082810000000002
33.80000000000001,-0.008312
34.0,-0.0084680000000001
34.19999999999999,-0.0078940000000002
34.400000000000034,-0.0077960000000003
34.60000000000002,-0.0070209999999999
34.80000000000001,-0.0088810000000001
35.0,-0.0091130000000001
35.19999999999999,-0.0111460000000001
35.400000000000034,-0.0134560000000001
35.60000000000002,-0.0157470000000001
35.80000000000001,-0.016067
36.0,-0.0159350000000002
36.19999999999999,-0.0145620000000001
36.400000000000034,-0.011365
36.60000000000002,-0.0072369999999999
36.80000000000001,-0.003276
37.0,-0.00143
37.19999999999999,-0.0017430000000002
37.400000000000034,-0.0013970000000003
37.60000000000002,-0.0016280000000001
37.80000000000001,-0.0007870000000003
38.0,-0.0005079999999999
38.19999999999999,0.0015629999999999
38.400000000000034,0.0021659999999998
38.60000000000002,0.0004649999999997
38.80000000000001,-0.0008099999999999
39.0,-0.0004170000000001
39.19999999999999,-0.0027820000000002
39.400000000000034,-0.004909
39.60000000000002,-0.0048370000000002
39.80000000000001,-0.004426
40.0,-0.004712
40.19999999999999,-0.0038200000000001
40.400000000000034,-0.0033959999999999
40.60000000000002,-0.0041380000000001
40.80000000000001,-0.0043999999999999
41.0,-0.0037030000000002
41.19999999999999,-0.0021660000000003
41.400000000000034,-0.0037359999999999
41.60000000000002,-0.0058950000000002
41.80000000000001,-0.0086220000000003
42.0,-0.0116580000000001
42.19999999999999,-0.0135119999999999
42.400000000000034,-0.0118240000000002
42.60000000000002,-0.0081540000000002
42.80000000000001,-0.004744
43.0,-0.0036990000000001
43.19999999999999,-0.0052920000000002
43.400000000000034,-0.007152
43.60000000000002,-0.0070080000000003
43.80000000000001,-0.0074040000000001
44.0,-0.0059690000000003
44.19999999999999,-0.0054020000000001
44.400000000000034,-0.003184
44.60000000000002,-0.0052370000000001
44.80000000000001,-0.0055080000000002
45.0,-0.0068010000000002
45.19999999999999,-0.0037350000000002
45.400000000000034,-0.003873
45.60000000000002,-0.0015260000000001
45.80000000000001,-0.0029080000000001
46.0,-0.0035000000000002
46.19999999999999,-0.0024429999999999
46.400000000000034,-0.0004140000000001
46.60000000000002,-0.0004150000000002
46.80000000000001,0.0010849999999997
47.0,0.0037339999999996
47.19999999999999,0.0022819999999996
47.400000000000034,0.002148
47.60000000000002,-0.0001269999999999
47.80000000000001,-0.001201
48.0,-0.002593
48.19999999999999,-0.0044240000000002
48.400000000000034,-0.0078300000000002
48.60000000000002,-0.00733
48.80000000000001,-0.006774
49.0,-0.0073530000000001
49.19999999999999,-0.0050410000000002
49.400000000000034,-0.004429
49.60000000000002,-0.00482
49.80000000000001,-0.0046859999999999
50.0,-0.0043130000000002
50.19999999999999,-0.004372
50.400000000000034,-0.0011499999999999
50.60000000000002,0.0003429999999999
50.80000000000001,-0.0009749999999999
51.0,-0.0051510000000001
51.19999999999999,-0.011463
51.400000000000034,-0.0159510000000002
51.60000000000002,-0.0164900000000001
51.80000000000001,-0.0162110000000001
52.0,-0.0098440000000001
52.19999999999999,-0.002466
52.400000000000034,-0.0009610000000002
52.60000000000002,-0.002091
52.80000000000001,-0.002097
53.0,-0.005668
53.19999999999999,-0.008976
53.400000000000034,-0.0093590000000003
53.60000000000002,-0.0090690000000002
53.80000000000001,-0.0087110000000003
54.0,-0.0082150000000003
54.19999999999999,-0.0076080000000002
54.400000000000034,-0.0086240000000001
54.60000000000002,-0.0099590000000002
54.80000000000001,-0.012026
55.0,-0.0132920000000003
55.19999999999999,-0.0152740000000002
55.400000000000034,-0.0145120000000003
55.60000000000002,-0.012982
55.80000000000001,-0.0118040000000001
56.0,-0.0108019999999999
56.19999999999999,-0.0102290000000002
56.400000000000034,-0.0105340000000002
56.60000000000002,-0.0113220000000002
56.80000000000001,-0.0118910000000003
57.0,-0.0117660000000001
57.19999999999999,-0.0105030000000003
57.400000000000034,-0.0084950000000003
57.60000000000002,-0.0062190000000001
57.80000000000001,-0.0046920000000003
58.0,-0.0032390000000002
58.19999999999999,-0.0026830000000002
58.400000000000034,-0.0033160000000003
58.60000000000002,-0.0040880000000003
58.80000000000001,-0.0026170000000003
59.0,-0.0021170000000001
59.19999999999999,-0.001284
59.400000000000034,-0.0021440000000003
59.60000000000002,-0.0031579999999999
59.80000000000001,-0.0061330000000001
60.0,-0.007273
60.19999999999999,-0.0079760000000002
60.400000000000034,-0.0071000000000003
60.60000000000002,-0.0057450000000001
60.80000000000001,-0.0039980000000001
61.0,-0.0044729999999999
61.19999999999999,-0.0059170000000001
61.400000000000034,-0.0069660000000002
61.60000000000002,-0.0062730000000001
61.80000000000001,-0.0051070000000001
62.00000000000006,-0.0044859999999999
62.19999999999999,-0.0041489999999999
62.400000000000034,-0.0047390000000002
62.599999999999966,-0.0073720000000001
62.80000000000001,-0.0102710000000003
63.00000000000006,-0.0110209999999999
63.19999999999999,-0.0116089999999999
63.400000000000034,-0.0108640000000002
63.599999999999966,-0.0108719999999999
63.80000000000001,-0.0087220000000001
64.00000000000006,-0.0064580000000002
64.19999999999999,-0.0032870000000002
64.40000000000003,-0.0012240000000001
64.59999999999997,-0.001516
64.80000000000001,-0.0024619999999999
65.00000000000006,-0.0053050000000003
65.19999999999999,-0.0081730000000002
65.40000000000003,-0.0108939999999999
65.59999999999997,-0.0105500000000002
65.80000000000001,-0.0118599999999999
66.00000000000006,-0.0109620000000001
66.19999999999999,-0.0097450000000001
66.40000000000003,-0.0071039999999999
66.59999999999997,-0.007168
66.80000000000001,-0.0080979999999999
67.00000000000006,-0.0096600000000002
67.19999999999999,-0.0104490000000003
67.40000000000003,-0.0119500000000001
67.59999999999997,-0.0124760000000003
67.80000000000001,-0.0106610000000002
68.00000000000006,-0.0066330000000003
68.19999999999999,-0.0031030000000003
68.40000000000003,-0.0022740000000003
68.59999999999997,-0.0021750000000002
68.80000000000001,-0.0038900000000001
69.00000000000006,-0.0079630000000001
69.19999999999999,-0.0113500000000001
69.40000000000003,-0.0135400000000003
69.59999999999997,-0.0135140000000002
69.80000000000001,-0.0107509999999999
70.00000000000006,-0.0091610000000001
70.19999999999999,-0.008699
70.40000000000003,-0.0057370000000003
70.59999999999997,-0.002625
70.80000000000001,-0.00231
71.00000000000006,-0.0025020000000002
71.19999999999999,-0.0025690000000002
71.40000000000003,-0.0027470000000002
71.59999999999997,-0.0050090000000002
71.80000000000001,-0.0072350000000001
72.00000000000006,-0.0097390000000001
72.19999999999999,-0.0123730000000001
72.40000000000003,-0.015667
72.59999999999997,-0.0164509999999999
72.80000000000001,-0.015784
73.00000000000006,-0.014358
73.19999999999999,-0.0126479999999999
73.40000000000003,-0.0111410000000002
73.59999999999997,-0.009767
73.80000000000001,-0.0099370000000003
74.00000000000006,-0.0104360000000003
74.19999999999999,-0.010895
74.40000000000003,-0.0111980000000002
74.59999999999997,-0.0123330000000003
74.80000000000001,-0.0122360000000001
75.00000000000006,-0.0107980000000003
75.19999999999999,-0.010504
75.40000000000003,-0.0112040000000002
75.59999999999997,-0.0130220000000003
75.80000000000001,-0.0166120000000002
76.00000000000006,-0.0192019999999999
76.19999999999999,-0.0197690000000001
76.40000000000003,-0.0175320000000001
76.59999999999997,-0.0135279999999999
76.80000000000001,-0.0087770000000002
77.00000000000006,-0.0051330000000002
77.19999999999999,-0.0045000000000001
77.40000000000003,-0.0062839999999999
77.59999999999997,-0.010145
77.80000000000001,-0.0123390000000003
78.00000000000006,-0.0141690000000003
78.19999999999999,-0.014275
78.40000000000003,-0.0130780000000001
78.59999999999997,-0.0108779999999999
78.80000000000001,-0.0098390000000003
79.00000000000006,-0.0087589999999999
79.19999999999999,-0.0071320000000003
79.40000000000003,-0.0072020000000003
79.59999999999997,-0.008477
79.80000000000001,-0.011273
80.00000000000006,-0.01364
80.19999999999999,-0.015085
80.40000000000003,-0.0139460000000002
80.59999999999997,-0.0111920000000003
80.80000000000001,-0.0099800000000001
81.00000000000006,-0.0115190000000002
81.19999999999999,-0.0140649999999999
81.40000000000003,-0.0195220000000002
81.59999999999997,-0.023959
81.80000000000001,-0.0240400000000002
82.00000000000006,-0.0214660000000002
82.19999999999999,-0.0180730000000002
82.40000000000003,-0.0148220000000001
82.59999999999997,-0.011193
82.80000000000001,-0.0104420000000002
83.00000000000006,-0.0107870000000001
83.19999999999999,-0.012286
83.40000000000003,-0.0125330000000003
83.59999999999997,-0.0136560000000001
83.80000000000001,-0.012982
84.00000000000006,-0.0120390000000001
84.19999999999999,-0.011924
84.40000000000003,-0.0123809999999999
84.59999999999997,-0.012944
84.80000000000001,-0.011768
85.00000000000006,-0.0097949999999999
85.19999999999999,-0.0079290000000002
85.40000000000003,-0.0066429999999999
85.59999999999997,-0.0059230000000001
85.80000000000001,-0.006116
86.00000000000006,-0.0091019999999999
86.19999999999999,-0.0127760000000001
86.40000000000003,-0.0152100000000001
86.59999999999997,-0.0167800000000002
86.80000000000001,-0.0168300000000001
87.00000000000006,-0.0168380000000003
87.19999999999999,-0.0154670000000001
87.40000000000003,-0.0144130000000002
87.59999999999997,-0.0138930000000003
87.80000000000001,-0.0148200000000002
88.00000000000006,-0.013665
88.19999999999999,-0.0121610000000003
88.40000000000003,-0.010707
88.59999999999997,-0.0089450000000002
88.80000000000001,-0.0100440000000001
89.00000000000006,-0.0119980000000001
89.19999999999999,-0.0126250000000003
89.40000000000003,-0.0124090000000003
89.59999999999997,-0.0127730000000001
89.80000000000001,-0.0111829999999999
90.00000000000006,-0.0088690000000002
90.2,-0.0092690000000001
90.40000000000003,-0.0112260000000001
90.59999999999997,-0.0125980000000001
90.8,-0.0136890000000002
91.00000000000006,-0.0143740000000001
91.2,-0.0139080000000002
91.40000000000003,-0.012121
91.59999999999997,-0.0109120000000002
91.8,-0.008868
92.00000000000006,-0.0068900000000002
92.2,-0.005465
92.40000000000003,-0.0051130000000001
92.59999999999997,-0.0039350000000002
92.8,-0.003883
93.00000000000006,-0.0030460000000003
93.2,-0.003438
93.40000000000003,-0.0043860000000002
93.59999999999997,-0.0061940000000002
93.8,-0.0078089999999999
94.00000000000006,-0.0116450000000001
94.2,-0.0150770000000002
94.40000000000003,-0.0168270000000001
94.59999999999997,-0.0166889999999999
94.8,-0.0168220000000003
95.00000000000006,-0.0138450000000003
95.2,-0.0102360000000003
95.40000000000003,-0.0071980000000002
95.59999999999997,-0.0041510000000002
95.8,-0.0016150000000001
96.00000000000006,-0.0015390000000001
96.2,-0.0029110000000001
96.40000000000003,-0.0054310000000001
96.59999999999997,-0.0108900000000002
96.8,-0.015416
97.00000000000006,-0.018609
97.2,-0.0190260000000002
97.40000000000003,-0.0179949999999999
97.59999999999997,-0.0167130000000002
97.8,-0.0145560000000002
98.00000000000006,-0.0130129999999999
98.2,-0.0135720000000003
98.40000000000003,-0.014914
98.59999999999997,-0.0135240000000003
98.8,-0.0143330000000001
99.00000000000006,-0.014628
99.2,-0.014901
99.40000000000003,-0.014431
99.59999999999997,-0.0146920000000001
99.8,-0.0129230000000002
100.00000000000006,-0.0116499999999999
100.2,-0.009945
100.40000000000003,-0.0081570000000001
100.59999999999997,-0.0077860000000002
100.8,-0.0092250000000002
101.00000000000006,-0.0104170000000003
101.2,-0.0105300000000001
101.40000000000003,-0.0097819999999999
101.59999999999997,-0.009389
101.8,-0.0079610000000003
102.00000000000006,-0.0078370000000003
102.2,-0.0072879999999999
102.40000000000003,-0.0087460000000003
102.59999999999997,-0.0070230000000002
102.8,-0.0059979999999999
103.00000000000006,-0.0076420000000001
103.2,-0.0107159999999999
103.40000000000003,-0.0118340000000003
103.59999999999997,-0.0134389999999999
103.8,-0.0149120000000002
104.00000000000006,-0.0143500000000003
104.2,-0.0134990000000003
104.40000000000003,-0.0130210000000001
104.59999999999997,-0.0134160000000003
104.8,-0.01302
105.00000000000006,-0.011057
105.2,-0.009058
105.40000000000003,-0.0094030000000002
105.59999999999997,-0.0106200000000002
105.8,-0.0106190000000001
106.00000000000006,-0.009109
106.2,-0.0101520000000001
106.40000000000003,-0.009573
106.59999999999997,-0.0092259999999999
106.8,-0.0107430000000001
107.00000000000006,-0.0138480000000003
107.2,-0.014933
107.40000000000003,-0.0152270000000003
107.59999999999997,-0.0147600000000003
107.8,-0.0144330000000003
108.00000000000006,-0.0144969999999999
108.2,-0.0148730000000001
108.40000000000003,-0.0161000000000002
108.59999999999997,-0.0173480000000001
108.8,-0.0172690000000002
109.00000000000006,-0.0173879999999999
109.2,-0.0171890000000001
109.40000000000003,-0.0181470000000003
109.59999999999997,-0.0187090000000003
109.8,-0.0211770000000002
110.00000000000006,-0.0217119999999999
110.2,-0.0216100000000003
110.40000000000003,-0.020016
110.59999999999997,-0.0203120000000001
110.8,-0.021182
111.00000000000006,-0.0207000000000001
111.2,-0.0192070000000001
111.40000000000003,-0.018097
111.59999999999997,-0.015409
111.8,-0.0106130000000002
112.00000000000006,-0.007959
112.2,-0.0080520000000001
112.40000000000003,-0.007371
112.59999999999997,-0.0065570000000003
112.8,-0.0071630000000002
113.00000000000006,-0.0078580000000001
113.2,-0.007479
113.40000000000003,-0.0076770000000001
113.59999999999997,-0.0088430000000001
113.8,-0.010005
114.00000000000006,-0.011889
114.2,-0.0142570000000001
114.40000000000003,-0.0164010000000001
114.59999999999997,-0.0188600000000001
114.8,-0.0191790000000002
115.00000000000006,-0.0204840000000001
115.2,-0.0211520000000002
115.40000000000003,-0.020988
115.59999999999997,-0.0194910000000003
115.8,-0.0179650000000002
116.00000000000006,-0.0143680000000001
116.2,-0.0103600000000003
116.40000000000003,-0.0084720000000002
116.59999999999997,-0.0059059999999999
116.8,-0.0050540000000003
117.00000000000006,-0.0051940000000003
117.2,-0.0065870000000001
117.40000000000003,-0.008785
117.59999999999997,-0.0133140000000002
117.8,-0.017611
118.00000000000006,-0.0233229999999999
118.2,-0.0244900000000001
118.40000000000003,-0.0243730000000002
118.59999999999997,-0.0222640000000002
118.8,-0.018132
119.00000000000006,-0.0129920000000001
119.2,-0.0098519999999999
119.40000000000003,-0.0070580000000002
119.59999999999997,-0.005433
119.8,-0.0069880000000002
120.00000000000006,-0.0077060000000002
120.2,-0.0093290000000001
120.40000000000003,-0.011422
120.59999999999997,-0.0155920000000002
120.8,-0.0170989999999999
121.00000000000006,-0.0198580000000001
121.2,-0.0220350000000002
121.40000000000003,-0.0229780000000001
121.59999999999997,-0.0195800000000003
121.8,-0.0178640000000003
122.00000000000006,-0.0165130000000002
122.2,-0.0174980000000002
122.40000000000003,-0.0173499999999999
122.59999999999997,-0.018164
122.8,-0.0174769999999999
123.00000000000006,-0.0165969999999999
123.2,-0.0129770000000002
123.40000000000003,-0.0098720000000001
123.59999999999997,-0.0079250000000001
123.8,-0.0103490000000001
124.00000000000006,-0.0123890000000002
124.2,-0.0142090000000001
124.40000000000003,-0.0153510000000003
124.59999999999997,-0.0158659999999999
124.8,-0.0140359999999999
125.00000000000006,-0.0121450000000002
125.2,-0.0108589999999999
125.40000000000003,-0.0122550000000001
125.59999999999997,-0.0167200000000002
125.8,-0.0199290000000003
126.00000000000006,-0.0215640000000001
126.2,-0.023085
126.40000000000003,-0.0248250000000003
126.59999999999997,-0.0228600000000001
126.8,-0.021554
127.00000000000006,-0.01966
127.2,-0.0183090000000003
127.40000000000003,-0.0151959999999999
127.59999999999997,-0.0136709999999999
127.8,-0.0139050000000002
128.00000000000006,-0.0152719999999999
128.2,-0.0154620000000003
128.40000000000003,-0.0145660000000003
128.59999999999997,-0.0140730000000002
128.8,-0.0111890000000003
129.00000000000006,-0.011279
129.2,-0.0127490000000003
129.40000000000003,-0.0152320000000001
129.59999999999997,-0.0164690000000002
129.8,-0.0176940000000001
130.00000000000006,-0.0171810000000003
130.2,-0.017417
130.40000000000003,-0.0189280000000002
130.59999999999997,-0.0200140000000002
130.8,-0.0195229999999999
131.00000000000006,-0.0172340000000001
131.2,-0.0144160000000002
131.40000000000003,-0.010761
131.59999999999997,-0.0081280000000001
131.8,-0.0076040000000001
132.00000000000006,-0.010018
132.2,-0.0123930000000003
132.40000000000003,-0.0145060000000003
132.59999999999997,-0.0164170000000001
132.8,-0.0185780000000002
133.00000000000006,-0.0174290000000003
133.2,-0.0149840000000001
133.40000000000003,-0.012998
133.59999999999997,-0.0122780000000002
133.8,-0.0108719999999999
134.00000000000006,-0.0092940000000001
134.2,-0.007346
134.40000000000003,-0.0072930000000002
134.59999999999997,-0.004715
134.8,-0.002304
135.00000000000006,-0.0024480000000002
135.2,-0.0048129999999999
135.40000000000003,-0.0053590000000003
135.59999999999997,-0.0077850000000001
135.8,-0.0118520000000001
136.00000000000006,-0.013843
136.2,-0.014993
136.40000000000003,-0.015619
136.59999999999997,-0.0144390000000003
136.8,-0.0138100000000003
137.00000000000006,-0.0152179999999999
137.2,-0.015749
137.40000000000003,-0.0150529999999999
137.59999999999997,-0.014364
137.8,-0.0134780000000001
138.00000000000006,-0.0136860000000003
138.2,-0.0147500000000002
138.40000000000003,-0.014132
138.59999999999997,-0.0154750000000003
138.8,-0.0154390000000002
139.00000000000006,-0.0155640000000003
139.2,-0.0148670000000001
139.40000000000003,-0.0164200000000001
139.59999999999997,-0.0182500000000001
139.8,-0.0201850000000001
140.00000000000006,-0.018316
140.2,-0.0154200000000002
140.40000000000003,-0.0129870000000003
140.59999999999997,-0.0115700000000003
140.8,-0.0112160000000001
141.00000000000006,-0.0121030000000001
141.2,-0.0139070000000001
141.40000000000003,-0.0172609999999999
141.59999999999997,-0.0201320000000002
141.8,-0.0229810000000001
142.00000000000006,-0.0257740000000001
142.2,-0.028934
142.40000000000003,-0.0286820000000003
142.59999999999997,-0.0258880000000001
142.8,-0.0219560000000003
143.00000000000006,-0.0171110000000003
143.2,-0.0124400000000002
143.40000000000003,-0.0121700000000002
143.59999999999997,-0.0120500000000003
143.8,-0.0116119999999999
144.00000000000006,-0.0123809999999999
144.2,-0.0161350000000002
144.40000000000003,-0.0171800000000001
144.59999999999997,-0.017802
144.8,-0.0179340000000003
145.00000000000006,-0.0193419999999999
145.2,-0.019012
145.40000000000003,-0.0179800000000001
145.59999999999997,-0.017122
145.8,-0.0167960000000002
146.00000000000006,-0.0158690000000003
146.2,-0.014491
146.40000000000003,-0.0143520000000001
146.59999999999997,-0.0153920000000002
146.8,-0.016823
147.00000000000006,-0.019444
147.2,-0.02136
147.40000000000003,-0.0217230000000001
147.59999999999997,-0.0219850000000003
147.8,-0.0228399999999999
148.00000000000006,-0.0212609999999999
148.2,-0.0189430000000001
148.40000000000003,-0.0204620000000002
148.59999999999997,-0.0220679999999999
148.8,-0.0230909999999999
149.00000000000006,-0.0232230000000002
149.2,-0.0226220000000001
149.40000000000003,-0.0203679999999999
149.59999999999997,-0.0201190000000002
149.8,-0.019886
150.00000000000006,-0.0209540000000001
150.2,-0.0234119999999999
150.40000000000003,-0.0230990000000002
150.59999999999997,-0.0217309999999999
150.8,-0.0191780000000001
151.00000000000006,-0.0161950000000001
151.2,-0.0142260000000002
151.40000000000003,-0.0149490000000001
151.59999999999997,-0.0142640000000002
151.8,-0.0149250000000003
152.00000000000006,-0.017916
152.2,-0.0209360000000002
152.40000000000003,-0.0231380000000003
152.59999999999997,-0.024912
152.8,-0.0251580000000002
153.00000000000006,-0.0229600000000003
153.2,-0.0202520000000001
153.40000000000003,-0.016817
153.59999999999997,-0.0138250000000001
153.8,-0.010907
154.00000000000006,-0.0104820000000001
154.2,-0.0115500000000001
154.40000000000003,-0.0135230000000001
154.59999999999997,-0.0163950000000001
154.8,-0.0201120000000001
155.00000000000006,-0.0213290000000001
155.2,-0.0202059999999999
155.40000000000003,-0.017071
155.59999999999997,-0.014215
155.8,-0.013503
156.00000000000006,-0.0158070000000001
156.2,-0.0173780000000003
156.40000000000003,-0.0201060000000001
156.59999999999997,-0.020264
156.8,-0.0188670000000001
157.00000000000006,-0.0161670000000002
157.2,-0.0137140000000002
157.40000000000003,-0.0127360000000003
157.59999999999997,-0.0149350000000003
157.8,-0.017014
158.00000000000006,-0.0180630000000001
158.2,-0.0207250000000001
158.40000000000003,-0.0229319999999999
158.59999999999997,-0.0225280000000003
158.8,-0.0206380000000003
159.00000000000006,-0.0200900000000001
159.2,-0.019489
159.40000000000003,-0.0186220000000001
159.59999999999997,-0.0184610000000002
159.8,-0.0190369999999999
160.00000000000006,-0.0192339999999999
160.2,-0.018075
160.40000000000003,-0.0165589999999999
160.59999999999997,-0.0146930000000002
160.8,-0.0158170000000001
161.00000000000006,-0.0175750000000003
161.2,-0.0206330000000001
161.40000000000003,-0.0229880000000002
161.59999999999997,-0.026005
161.8,-0.0261940000000002
162.00000000000006,-0.023873
162.2,-0.0216890000000002
162.40000000000003,-0.0192719999999999
162.59999999999997,-0.0175330000000002
162.8,-0.01512
163.00000000000006,-0.0143170000000001
163.2,-0.0125589999999999
163.40000000000003,-0.012118
163.59999999999997,-0.0126080000000001
163.8,-0.015206
164.00000000000006,-0.0152019999999999
164.2,-0.0161950000000001
164.40000000000003,-0.0181390000000001
164.59999999999997,-0.0198970000000002
164.8,-0.0190710000000002
165.00000000000006,-0.0202880000000003
165.2,-0.0228700000000001
165.40000000000003,-0.0249040000000002
165.59999999999997,-0.0240470000000003
165.8,-0.025201
166.00000000000006,-0.0258670000000003
166.2,-0.024677
166.40000000000003,-0.022745
166.59999999999997,-0.0212959999999999
166.8,-0.021033
167.00000000000006,-0.0210530000000002
167.2,-0.0214210000000001
167.40000000000003,-0.0218770000000003
167.59999999999997,-0.022853
167.8,-0.020388
168.00000000000006,-0.0178090000000001
168.2,-0.015419
168.40000000000003,-0.0146510000000001
168.59999999999997,-0.0133320000000001
168.8,-0.011822
169.00000000000006,-0.011387
169.2,-0.0121540000000002
169.40000000000003,-0.0123280000000001
169.59999999999997,-0.0141810000000002
169.8,-0.0176750000000001
170.00000000000006,-0.019724
170.2,-0.0200080000000002
170.40000000000003,-0.020318
170.59999999999997,-0.0190920000000001
170.8,-0.0172700000000003
171.00000000000006,-0.0171149999999999
171.2,-0.0175900000000002
171.40000000000003,-0.016887
171.59999999999997,-0.018005
171.8,-0.019206
172.00000000000006,-0.019546
172.2,-0.0191460000000001
172.40000000000003,-0.0198330000000002
172.59999999999997,-0.0208669999999999
172.8,-0.0219819999999999
173.00000000000006,-0.022564
173.2,-0.0231510000000003
173.40000000000003,-0.0231060000000002
173.59999999999997,-0.0226200000000003
173.8,-0.021929
174.00000000000006,-0.0212829999999999
174.2,-0.0209350000000001
174.40000000000003,-0.0211070000000002
174.59999999999997,-0.021703
174.8,-0.0217870000000002
175.00000000000006,-0.023365
175.2,-0.0238500000000003
175.40000000000003,-0.0244300000000001
175.59999999999997,-0.0228260000000002
175.8,-0.0225270000000001
176.00000000000006,-0.0211540000000001
176.2,-0.0222260000000003
176.40000000000003,-0.0214560000000001
176.59999999999997,-0.022221
176.8,-0.0219010000000001
177.00000000000006,-0.0222190000000002
177.2,-0.0219850000000003
177.40000000000003,-0.0231449999999999
177.59999999999997,-0.0245820000000001
177.8,-0.026774
178.00000000000006,-0.0282690000000003
178.2,-0.0269989999999999
178.40000000000003,-0.0254790000000002
178.59999999999997,-0.0230390000000002
178.8,-0.022005
179.00000000000006,-0.0203679999999999
179.2,-0.0196550000000002
179.40000000000003,-0.0193440000000002
179.59999999999997,-0.0195410000000002
179.8,-0.0189940000000001
180.00000000000006,-0.019266
180.2,-0.0214060000000002
180.40000000000003,-0.0218600000000002
180.6,-0.0212050000000001
180.8,-0.019517
181.00000000000009,-0.0167170000000003
181.2,-0.0130410000000003
181.40000000000003,-0.0111920000000003
181.6,-0.0114260000000001
181.8,-0.0137490000000002
182.00000000000009,-0.018313
182.2,-0.0226630000000001
182.40000000000003,-0.0257180000000003
182.6,-0.0258020000000001
182.8,-0.024804
183.00000000000009,-0.0243920000000001
183.2,-0.022078
183.40000000000003,-0.0193880000000001
183.6,-0.0177650000000002
183.8,-0.0166490000000001
184.00000000000009,-0.0144700000000002
184.2,-0.0151030000000003
184.40000000000003,-0.0152360000000002
184.6,-0.0166410000000003
184.8,-0.0165090000000001
185.00000000000009,-0.0163230000000003
185.2,-0.0153630000000002
185.40000000000003,-0.0183180000000002
185.6,-0.0202409999999999
185.8,-0.0225210000000002
186.00000000000009,-0.0218540000000002
186.2,-0.0215460000000002
186.40000000000003,-0.0184320000000002
186.6,-0.0178929999999999
186.8,-0.0169550000000002
187.00000000000009,-0.0185760000000003
187.2,-0.0188019999999999
187.40000000000003,-0.0194810000000003
187.6,-0.0176790000000002
187.8,-0.0177710000000002
188.00000000000009,-0.0175680000000002
188.2,-0.0189099999999999
188.40000000000003,-0.0186870000000003
188.6,-0.0186680000000003
188.8,-0.0187150000000002
189.00000000000009,-0.0190350000000001
189.2,-0.0198590000000002
189.40000000000003,-0.021341
189.6,-0.0221710000000001
189.8,-0.0214850000000002
190.00000000000009,-0.019787
190.2,-0.0174180000000001
190.40000000000003,-0.016836
190.6,-0.0155380000000002
190.8,-0.0144000000000001
191.00000000000009,-0.0163070000000002
191.2,-0.0169430000000003
191.40000000000003,-0.0181900000000001
191.6,-0.0207209999999999
191.8,-0.0242810000000002
192.00000000000009,-0.0252730000000003
192.2,-0.026469
192.40000000000003,-0.0248540000000003
192.6,-0.0233210000000001
192.8,-0.0201320000000002
193.00000000000009,-0.0184220000000001
193.2,-0.017246
193.40000000000003,-0.0178420000000003
193.6,-0.0199670000000002
193.8,-0.0225060000000003
194.00000000000009,-0.0234469999999999
194.2,-0.022529
194.40000000000003,-0.0221170000000001
194.6,-0.0210069999999999
194.8,-0.019257
195.00000000000009,-0.017303
195.2,-0.0181010000000001
195.40000000000003,-0.0186870000000003
195.6,-0.0182519999999999
195.8,-0.0181840000000002
196.00000000000009,-0.0193860000000003
196.2,-0.020378
196.40000000000003,-0.0204820000000003
196.6,-0.0204940000000002
196.8,-0.0200280000000003
197.00000000000009,-0.0201540000000002
197.2,-0.0187080000000001
197.40000000000003,-0.0168530000000002
197.6,-0.0149700000000003
197.8,-0.0160430000000002
198.00000000000009,-0.0177629999999999
198.2,-0.0194510000000001
198.40000000000003,-0.0207740000000002
198.6,-0.0230209999999999
198.8,-0.0239060000000002
199.00000000000009,-0.02278
199.2,-0.0205999999999999
199.40000000000003,-0.019762
199.6,-0.0184360000000003
199.8,-0.0157660000000001
200.00000000000009,-0.01303
200.2,-0.0166630000000003
200.40000000000003,-0.0216359999999999
200.6,-0.0256800000000003
200.8,-0.0284159999999999
201.00000000000009,-0.0315100000000003
201.2,-0.0302450000000003
201.40000000000003,-0.0262920000000002
201.6,-0.023365
201.8,-0.0244430000000002
202.00000000000009,-0.0239150000000001
202.2,-0.0220869999999999
202.40000000000003,-0.021042
202.6,-0.02021
202.8,-0.0177620000000002
203.00000000000009,-0.0162560000000002
203.2,-0.0165030000000001
203.40000000000003,-0.0177309999999999
203.6,-0.0182170000000003
203.8,-0.0180010000000003
204.00000000000009,-0.020718
204.2,-0.0207230000000002
204.40000000000003,-0.019905
204.6,-0.0193080000000001
204.8,-0.0186130000000002
205.00000000000009,-0.0163619999999999
205.2,-0.0179260000000001
205.40000000000003,-0.01987
205.6,-0.021751
205.8,-0.0242580000000001
206.00000000000009,-0.0256410000000002
206.2,-0.0249290000000002
206.40000000000003,-0.0250380000000003
206.6,-0.026116
206.8,-0.0268320000000001
207.00000000000009,-0.0271510000000003
207.2,-0.0267349999999999
207.40000000000003,-0.0249840000000003
207.6,-0.0232580000000002
207.8,-0.023095
208.00000000000009,-0.0231320000000003
208.2,-0.024839
208.40000000000003,-0.0257710000000002
208.6,-0.0251800000000002
208.8,-0.023584
209.00000000000009,-0.02157
209.2,-0.0208810000000001
209.40000000000003,-0.0203830000000002
209.6,-0.021376
209.8,-0.0221020000000002
210.00000000000009,-0.0250449999999999
210.2,-0.0273350000000003
210.40000000000003,-0.0291589999999999
210.6,-0.028099
210.8,-0.0274320000000001
211.00000000000009,-0.0265140000000001
211.2,-0.0249300000000003
211.40000000000003,-0.024083
211.6,-0.0232879999999999
211.8,-0.0216340000000001
212.00000000000009,-0.0189449999999999
212.2,-0.016378
212.40000000000003,-0.0136290000000003
212.6,-0.0140420000000003
212.8,-0.0146990000000002
213.00000000000009,-0.0163060000000001
213.2,-0.0171050000000003
213.40000000000003,-0.0178690000000001
213.6,-0.0183919999999999
213.8,-0.0178500000000001
214.00000000000009,-0.016804
214.2,-0.0166150000000002
214.40000000000003,-0.0162120000000003
214.6,-0.0154689999999999
214.8,-0.0160029999999999
215.00000000000009,-0.0163350000000002
215.2,-0.0151730000000003
215.40000000000003,-0.0143870000000001
215.6,-0.0139249999999999
215.8,-0.0152490000000002
216.00000000000009,-0.0163740000000003
216.2,-0.0200960000000001
216.40000000000003,-0.0230040000000002
216.6,-0.0248190000000003
216.8,-0.0268870000000003
217.00000000000009,-0.0264649999999999
217.2,-0.0251040000000002
217.40000000000003,-0.0253360000000002
217.6,-0.0264890000000002
217.8,-0.0235560000000001
218.00000000000009,-0.0235009999999999
218.2,-0.0230520000000002
218.40000000000003,-0.0242059999999999
218.6,-0.0232590000000003
218.8,-0.0253930000000002
219.00000000000009,-0.0267840000000001
219.2,-0.0279890000000002
219.40000000000003,-0.0265330000000001
219.6,-0.026761
219.8,-0.026405
220.00000000000009,-0.0268420000000002
220.2,-0.0281480000000002
220.40000000000003,-0.0295110000000002
220.6,-0.029509
220.8,-0.029595
221.00000000000009,-0.0293810000000003
221.2,-0.028763
221.40000000000003,-0.0288330000000001
221.6,-0.029792
221.8,-0.0292609999999999
222.00000000000009,-0.0289640000000002
222.2,-0.0280340000000003
222.40000000000003,-0.026574
222.6,-0.0262570000000001
222.8,-0.0258510000000002
223.00000000000009,-0.0256220000000002
223.2,-0.025112
223.40000000000003,-0.026745
223.6,-0.0272260000000001
223.8,-0.028537
224.00000000000009,-0.0280439999999999
224.2,-0.0282090000000003
224.40000000000003,-0.0267370000000002
224.6,-0.026774
224.8,-0.0267370000000002
225.00000000000009,-0.028337
225.2,-0.0302090000000001
225.40000000000003,-0.0324690000000003
225.6,-0.0347129999999999
225.8,-0.0354610000000001
226.00000000000009,-0.0358530000000003
226.2,-0.0371300000000003
226.40000000000003,-0.0367380000000001
226.6,-0.0344450000000002
226.8,-0.034189
227.00000000000009,-0.0330570000000003
227.2,-0.0286710000000001
227.40000000000003,-0.0248880000000002
227.6,-0.0203190000000001
227.8,-0.0176380000000002
228.00000000000009,-0.0159440000000001
228.2,-0.0164440000000003
228.40000000000003,-0.0171170000000002
228.6,-0.0194370000000003
228.8,-0.020858
229.00000000000009,-0.022977
229.2,-0.0253800000000001
229.40000000000003,-0.0261530000000003
229.6,-0.026675
229.8,-0.0252479999999999
230.00000000000009,-0.023279
230.2,-0.0194870000000002
230.40000000000003,-0.0165010000000003
230.6,-0.0152420000000002
230.8,-0.0148369999999999
231.00000000000009,-0.0134820000000002
231.2,-0.013849
231.40000000000003,-0.0166080000000001
231.6,-0.0192580000000002
231.8,-0.0226290000000002
232.00000000000009,-0.024369
232.2,-0.024181
232.40000000000003,-0.0238979999999999
232.6,-0.0227330000000001
232.8,-0.0210940000000001
233.00000000000009,-0.02054
233.2,-0.0213770000000002
233.40000000000003,-0.0239100000000003
233.6,-0.0254500000000001
233.8,-0.0251780000000003
234.00000000000009,-0.0247250000000001
234.2,-0.0254860000000003
234.40000000000003,-0.0226429999999999
234.6,-0.0199690000000001
234.8,-0.0187430000000001
235.00000000000009,-0.0180450000000003
235.2,-0.018513
235.40000000000003,-0.0208030000000003
235.6,-0.0231129999999999
235.8,-0.0236490000000002
236.00000000000009,-0.0241090000000001
236.2,-0.0227460000000001
236.40000000000003,-0.0214540000000003
236.6,-0.019832
236.8,-0.0206080000000001
237.00000000000009,-0.020264
237.2,-0.018504
237.40000000000003,-0.016442
237.6,-0.0170060000000003
237.8,-0.0161630000000001
238.00000000000009,-0.0170669999999999
238.2,-0.018755
238.40000000000003,-0.020661
238.6,-0.0211559999999999
238.8,-0.0227410000000003
239.00000000000009,-0.0254780000000001
239.2,-0.027946
239.40000000000003,-0.0286080000000001
239.6,-0.0274879999999999
239.8,-0.0245079999999999
240.00000000000009,-0.0215620000000003
240.2,-0.0204180000000002
240.40000000000003,-0.0200170000000001
240.6,-0.0193980000000002
240.8,-0.019565
241.00000000000009,-0.0207710000000003
241.2,-0.0208660000000002
241.40000000000003,-0.021398
241.6,-0.0243890000000002
241.8,-0.0274740000000002
242.00000000000009,-0.0281130000000002
242.2,-0.0284980000000003
242.40000000000003,-0.028817
242.6,-0.0276330000000002
242.8,-0.02733
243.00000000000009,-0.0280620000000002
243.2,-0.0292609999999999
243.40000000000003,-0.030507
243.6,-0.0326379999999999
243.8,-0.0351540000000003
244.00000000000009,-0.0359310000000001
244.2,-0.0346710000000003
244.40000000000003,-0.0319340000000001
244.6,-0.0289300000000003
244.8,-0.0250530000000002
245.00000000000009,-0.023368
245.2,-0.0223300000000001
245.40000000000003,-0.0229699999999999
245.6,-0.02373
245.8,-0.0236
246.00000000000009,-0.0233760000000002
246.2,-0.0229440000000002
246.40000000000003,-0.0220630000000001
246.6,-0.0211930000000002
246.8,-0.0222790000000001
247.00000000000009,-0.0230209999999999
247.2,-0.0237549999999999
247.40000000000003,-0.0252430000000001
247.6,-0.0276420000000001
247.8,-0.028064
248.00000000000009,-0.0269920000000003
248.2,-0.0272110000000003
248.40000000000003,-0.0273910000000001
248.6,-0.0270939999999999
248.8,-0.0279830000000003
249.00000000000009,-0.0266589999999999
249.2,-0.0252970000000001
249.40000000000003,-0.0246680000000001
249.6,-0.0251640000000001
249.8,-0.0261850000000003
250.00000000000009,-0.027365
250.2,-0.0286370000000002
250.40000000000003,-0.0297710000000002
250.6,-0.0290890000000003
250.8,-0.0272420000000002
251.00000000000009,-0.0257620000000002
251.2,-0.026529
251.40000000000003,-0.0263880000000003
251.6,-0.0264250000000001
251.8,-0.0249260000000002
252.00000000000009,-0.0263569999999999
252.2,-0.0264540000000002
252.40000000000003,-0.02624
252.6,-0.0261940000000002
252.8,-0.0259150000000003
253.00000000000009,-0.0256350000000002
253.2,-0.024607
253.40000000000003,-0.0236840000000002
253.6,-0.0220800000000003
253.8,-0.0243310000000001
254.00000000000009,-0.0257439999999999
254.2,-0.0261400000000002
254.40000000000003,-0.0285299999999999
254.6,-0.03072
254.8,-0.0306170000000003
255.00000000000009,-0.0287740000000003
255.2,-0.0282940000000002
255.40000000000003,-0.0257940000000003
255.6,-0.0229220000000003
255.8,-0.020518
256.00000000000006,-0.0208250000000003
256.2,-0.0196880000000003
256.40000000000003,-0.0175339999999999
256.6,-0.0171000000000001
256.8,-0.0183520000000001
257.00000000000006,-0.0185539999999999
257.2,-0.0210310000000002
257.40000000000003,-0.0253430000000003
257.6,-0.027689
257.8,-0.0284110000000001
258.00000000000006,-0.0289620000000003
258.2,-0.0269600000000003
258.40000000000003,-0.023616
258.6,-0.023076
258.8,-0.0243440000000001
259.00000000000006,-0.026869
259.2,-0.0308730000000001
259.40000000000003,-0.0344700000000002
259.6,-0.0360469999999999
259.8,-0.0336419999999999
260.00000000000006,-0.0321770000000003
260.2,-0.030777
260.40000000000003,-0.0307370000000002
260.6,-0.0292670000000003
260.8,-0.0293650000000003
261.00000000000006,-0.0286379999999999
261.2,-0.026313
261.40000000000003,-0.0220700000000002
261.6,-0.019184
261.8,-0.0166650000000001
262.00000000000006,-0.0147479999999999
262.2,-0.0140510000000002
262.40000000000003,-0.0166680000000001
262.6,-0.02048
262.8,-0.0254700000000003
263.00000000000006,-0.0286080000000001
263.2,-0.0320140000000002
263.40000000000003,-0.032477
263.6,-0.0317959999999999
263.8,-0.0287290000000002
264.00000000000006,-0.0254280000000002
264.2,-0.0234320000000001
264.40000000000003,-0.0238530000000003
264.6,-0.025306
264.8,-0.0280040000000001
265.00000000000006,-0.0309150000000002
265.2,-0.0325619999999999
265.40000000000003,-0.0325540000000001
265.6,-0.0310640000000002
265.8,-0.0304990000000002
266.00000000000006,-0.0298340000000001
266.2,-0.0287760000000001
266.40000000000003,-0.0278819999999999
266.6,-0.0284729999999999
266.8,-0.0287779999999999
267.00000000000006,-0.0301029999999999
267.2,-0.0313959999999999
267.40000000000003,-0.0324900000000001
267.6,-0.0317800000000003
267.8,-0.0302580000000003
268.00000000000006,-0.028845
268.2,-0.027921
268.40000000000003,-0.026288
268.6,-0.0248880000000002
268.8,-0.022262
269.00000000000006,-0.0210669999999999
269.2,-0.0190049999999999
269.40000000000003,-0.0182630000000001
269.6,-0.0173680000000002
269.8,-0.0197229999999999
270.00000000000006,-0.022472
270.2,-0.0264070000000002
270.40000000000003,-0.0276230000000001
270.6,-0.0276740000000002
270.8,-0.025525
271.00000000000006,-0.0228230000000002
271.2,-0.0212730000000003
271.40000000000003,-0.0196940000000003
271.6,-0.0215020000000003
271.8,-0.0239830000000003
272.00000000000006,-0.0256180000000001
272.2,-0.0245809999999999
272.40000000000003,-0.0268110000000003
272.6,-0.0286210000000002
272.8,-0.0311060000000003
273.00000000000006,-0.0325760000000001
273.2,-0.0329610000000002
273.40000000000003,-0.0311650000000001
273.6,-0.0298160000000002
273.8,-0.0290410000000003
274.00000000000006,-0.0283920000000001
274.2,-0.0282680000000001
274.40000000000003,-0.0292639999999999
274.6,-0.028235
274.8,-0.0265020000000002
275.00000000000006,-0.0248810000000001
275.2,-0.0263790000000003
275.40000000000003,-0.026008
275.6,-0.0272559999999999
275.8,-0.0298260000000003
276.00000000000006,-0.033395
276.2,-0.0343630000000003
276.40000000000003,-0.0352209999999999
276.6,-0.0350100000000002
276.8,-0.0322439999999999
277.00000000000006,-0.029948
277.2,-0.0289890000000001
277.40000000000003,-0.0296060000000002
277.6,-0.0296730000000002
277.8,-0.0292099999999999
278.00000000000006,-0.0272300000000003
278.2,-0.0243820000000001
278.40000000000003,-0.0221740000000001
278.6,-0.0211730000000001
278.8,-0.0210720000000002
279.00000000000006,-0.0219460000000002
279.2,-0.0217979999999999
279.40000000000003,-0.025471
279.6,-0.0296609999999999
279.8,-0.0338769999999999
280.00000000000006,-0.0339659999999999
280.2,-0.0335930000000002
280.40000000000003,-0.0309660000000002
280.6,-0.0276910000000003
280.8,-0.0246710000000001
281.00000000000006,-0.025671
281.2,-0.0274650000000002
281.40000000000003,-0.0300770000000003
281.6,-0.0324660000000003
281.8,-0.0351980000000002
282.00000000000006,-0.035304
282.2,-0.0361470000000001
282.40000000000003,-0.0345520000000001
282.6,-0.0315500000000001
282.8,-0.0272650000000003
283.00000000000006,-0.0242059999999999
283.2,-0.0218890000000002
283.40000000000003,-0.0203510000000002
283.6,-0.0227780000000001
283.8,-0.0259420000000001
284.00000000000006,-0.0285440000000001
284.2,-0.0276170000000002
284.40000000000003,-0.0270510000000001
284.6,-0.0244390000000001
284.8,-0.0225140000000001
285.00000000000006,-0.0227660000000002
285.2,-0.0258440000000002
285.40000000000003,-0.0271910000000001
285.6,-0.0272179999999999
285.8,-0.0252620000000001
286.00000000000006,-0.022307
286.2,-0.0218720000000001
286.40000000000003,-0.0241540000000002
286.6,-0.0258770000000003
286.8,-0.0296210000000001
287.00000000000006,-0.032477
287.2,-0.033338
287.40000000000003,-0.0316940000000003
287.6,-0.0318840000000002
287.8,-0.0319389999999999
288.00000000000006,-0.0321820000000001
288.2,-0.032496
288.40000000000003,-0.0320690000000003
288.6,-0.030056
288.8,-0.0293640000000001
289.00000000000006,-0.0305090000000003
289.2,-0.0313370000000001
289.40000000000003,-0.0306670000000002
289.6,-0.0303750000000002
289.8,-0.0276130000000001
290.00000000000006,-0.0249179999999999
290.2,-0.0227750000000002
290.40000000000003,-0.0243139999999999
290.6,-0.0257370000000003
290.8,-0.0280180000000003
291.00000000000006,-0.028388
291.2,-0.0274499999999999
291.40000000000003,-0.024604
291.6,-0.023644
291.8,-0.0228100000000002
292.00000000000006,-0.0234100000000001
292.2,-0.0253930000000002
292.40000000000003,-0.0294750000000001
292.6,-0.0326340000000002
292.8,-0.0342350000000002
293.00000000000006,-0.0327250000000001
293.2,-0.0299439999999999
293.40000000000003,-0.0267859999999999
293.6,-0.0245130000000002
293.8,-0.0237920000000002
294.00000000000006,-0.02339
294.2,-0.0238420000000001
294.40000000000003,-0.0249140000000003
294.6,-0.0245630000000001
294.8,-0.0239700000000002
295.00000000000006,-0.025382
295.2,-0.0274300000000002
295.40000000000003,-0.0302760000000001
295.6,-0.0328129999999999
295.8,-0.0355760000000002
296.00000000000006,-0.0384610000000003
296.2,-0.0396490000000002
296.40000000000003,-0.0374120000000002
296.6,-0.0359860000000002
296.8,-0.0337720000000003
297.00000000000006,-0.0312689999999999
297.2,-0.0303599999999999
297.40000000000003,-0.029668
297.6,-0.0305889999999999
297.8,-0.0321510000000002
298.00000000000006,-0.0338020000000001
298.2,-0.0353150000000002
298.40000000000003,-0.0380869999999999
298.6,-0.0374970000000001
298.8,-0.0357929999999999
299.00000000000006,-0.0346790000000001
299.2,-0.0327350000000001
299.40000000000003,-0.0301530000000003
299.6,-0.0282590000000002
299.8,-0.029258
299.99999999999994,-0.037568
300.2,-0.038812
300.3999999999999,-0.041325
300.6,-0.041274
300.7999999999999,-0.0406349999999999
300.99999999999994,-0.0404579999999998
301.1999999999999,-0.0379819999999999
301.3999999999999,-0.0373129999999999
301.6,-0.034264
301.7999999999999,-0.03278
301.99999999999994,-0.0330369999999999
302.1999999999999,-0.035438
302.3999999999999,-0.0366459999999999
302.6,-0.0391829999999999
302.7999999999999,-0.0389889999999999
302.99999999999994,-0.0380639999999998
303.1999999999999,-0.0342979999999999
303.3999999999999,-0.031687
303.6,-0.0299359999999999
303.7999999999999,-0.0311969999999999
303.99999999999994,-0.0313649999999998
304.1999999999999,-0.0311339999999999
304.3999999999999,-0.030807
304.6,-0.0302569999999999
304.7999999999999,-0.0274909999999999
304.99999999999994,-0.026494
305.1999999999999,-0.0272539999999998
305.3999999999999,-0.028127
305.6,-0.028518
305.7999999999999,-0.0321009999999999
305.99999999999994,-0.0337529999999999
306.1999999999999,-0.0344299999999999
306.3999999999999,-0.0329479999999999
306.6,-0.0296159999999998
306.7999999999999,-0.0250799999999999
306.99999999999994,-0.0226279999999998
307.1999999999999,-0.0223919999999999
307.3999999999999,-0.0245629999999998
307.6,-0.026731
307.7999999999999,-0.0267519999999998
307.99999999999994,-0.0268269999999999
308.1999999999999,-0.028583
308.3999999999999,-0.0288589999999999
308.6,-0.0300119999999999
308.7999999999999,-0.0327079999999999
308.99999999999994,-0.034974
309.1999999999999,-0.0338089999999999
309.3999999999999,-0.0336389999999999
309.6,-0.0346699999999999
309.7999999999999,-0.035441
309.99999999999994,-0.034818
310.1999999999999,-0.0350129999999999
310.3999999999999,-0.0345999999999999
310.6,-0.032909
310.7999999999999,-0.0325459999999999
310.99999999999994,-0.034375
311.1999999999999,-0.0355079999999998
311.3999999999999,-0.035679
311.6,-0.035652
311.7999999999999,-0.0335509999999998
311.99999999999994,-0.030772
312.1999999999999,-0.029743
312.3999999999999,-0.0307189999999999
312.6,-0.03309
312.7999999999999,-0.0329729999999999
312.99999999999994,-0.0313699999999999
313.1999999999999,-0.0293499999999999
313.3999999999999,-0.0271649999999998
313.6,-0.0251099999999999
313.7999999999999,-0.0263629999999999
313.99999999999994,-0.026213
314.1999999999999,-0.0235199999999999
314.3999999999999,-0.0219959999999999
314.6,-0.0215509999999998
314.7999999999999,-0.0208749999999999
314.99999999999994,-0.022035
315.1999999999999,-0.0231079999999999
315.3999999999999,-0.023981
315.6,-0.0238909999999998
315.7999999999999,-0.0246089999999998
315.99999999999994,-0.0237339999999999
316.1999999999999,-0.024248
316.3999999999999,-0.0226809999999999
316.6,-0.023341
316.7999999999999,-0.0237439999999999
316.99999999999994,-0.0274909999999999
317.1999999999999,-0.030335
317.3999999999999,-0.0332649999999998
317.6,-0.032102
317.7999999999999,-0.031112
317.99999999999994,-0.0288029999999999
318.1999999999999,-0.0272749999999999
318.3999999999999,-0.0276499999999999
318.6,-0.029951
318.7999999999999,-0.0314809999999998
318.99999999999994,-0.0306919999999999
319.1999999999999,-0.0307409999999999
319.3999999999999,-0.0299099999999998
319.6,-0.0293099999999999
319.7999999999999,-0.031887
319.99999999999994,-0.035411
320.1999999999999,-0.0366759999999999
320.3999999999999,-0.0367059999999999
320.6,-0.036394
320.7999999999999,-0.0333909999999999
320.99999999999994,-0.0312019999999999
321.1999999999999,-0.031455
321.3999999999999,-0.033995
321.6,-0.0341139999999999
321.7999999999999,-0.0335829999999999
321.99999999999994,-0.0326169999999998
322.1999999999999,-0.0319549999999999
322.3999999999999,-0.0304949999999999
322.6,-0.031295
322.7999999999999,-0.0335149999999999
322.99999999999994,-0.037098
323.1999999999999,-0.0386009999999998
323.3999999999999,-0.038756
323.6,-0.0390349999999999
323.7999999999999,-0.0376239999999998
323.99999999999994,-0.035285
324.1999999999999,-0.0329939999999999
324.3999999999999,-0.030191
324.6,-0.028513
324.7999999999999,-0.0274259999999999
324.99999999999994,-0.025646
325.1999999999999,-0.024256
325.3999999999999,-0.0245189999999999
325.6,-0.0247979999999998
325.7999999999999,-0.0233479999999999
325.99999999999994,-0.0226539999999999
326.1999999999999,-0.024545
326.3999999999999,-0.0254969999999998
326.6,-0.026205
326.7999999999999,-0.030523
326.99999999999994,-0.0344309999999998
327.1999999999999,-0.034337
327.3999999999999,-0.035717
327.6,-0.0363139999999999
327.7999999999999,-0.035201
327.99999999999994,-0.0337829999999998
328.1999999999999,-0.03499
328.3999999999999,-0.0343729999999999
328.6,-0.0317719999999999
328.7999999999999,-0.030626
328.99999999999994,-0.031109
329.1999999999999,-0.0289369999999999
329.3999999999999,-0.0275699999999998
329.6,-0.0275559999999999
329.7999999999999,-0.027115
329.99999999999994,-0.0265599999999999
330.1999999999999,-0.0303329999999999
330.3999999999999,-0.033044
330.6,-0.0359259999999999
330.7999999999999,-0.0348859999999999
330.99999999999994,-0.033754
331.1999999999999,-0.0311489999999998
331.3999999999999,-0.0301249999999999
331.6,-0.0283739999999999
331.7999999999999,-0.028939
331.99999999999994,-0.030038
332.1999999999999,-0.0302219999999999
332.3999999999999,-0.0297549999999999
332.6,-0.0304119999999998
332.7999999999999,-0.0310209999999999
332.99999999999994,-0.0304229999999998
333.1999999999999,-0.0310379999999999
333.3999999999999,-0.03139
333.6,-0.0311139999999998
333.7999999999999,-0.0310049999999999
333.99999999999994,-0.0307649999999999
334.1999999999999,-0.0322819999999999
334.3999999999999,-0.033887
334.6,-0.0354229999999999
334.7999999999999,-0.035581
334.99999999999994,-0.0360719999999998
335.1999999999999,-0.0330569999999998
335.3999999999999,-0.0298209999999998
335.6,-0.0259389999999999
335.7999999999999,-0.0233159999999998
335.99999999999994,-0.020755
336.1999999999999,-0.019733
336.3999999999999,-0.0209159999999999
336.6,-0.023997
336.7999999999999,-0.027649
336.99999999999994,-0.0301869999999999
337.1999999999999,-0.032774
337.3999999999999,-0.0335229999999999
337.6,-0.0339909999999998
337.7999999999999,-0.035055
337.99999999999994,-0.0363549999999999
338.1999999999999,-0.036955
338.3999999999999,-0.0377849999999999
338.6,-0.0366899999999998
338.7999999999999,-0.0337469999999999
338.99999999999994,-0.033646
339.1999999999999,-0.034499
339.3999999999999,-0.034675
339.6,-0.036289
339.7999999999999,-0.0398369999999999
339.99999999999994,-0.0411409999999998
340.1999999999999,-0.0402149999999998
340.3999999999999,-0.0395639999999999
340.6,-0.037965
340.7999999999999,-0.034159
340.99999999999994,-0.0295819999999999
341.1999999999999,-0.027341
341.3999999999999,-0.0275149999999999
341.6,-0.0287699999999999
341.7999999999999,-0.031576
341.99999999999994,-0.0338739999999999
342.1999999999999,-0.0357669999999998
342.3999999999999,-0.035144
342.6,-0.0351809999999999
342.7999999999999,-0.0336819999999999
342.99999999999994,-0.0329479999999999
343.1999999999999,-0.0304979999999999
343.3999999999999,-0.031795
343.6,-0.0324919999999999
343.7999999999999,-0.032691
343.99999999999994,-0.0335829999999999
344.1999999999999,-0.0353379999999998
344.3999999999999,-0.032661
344.6,-0.028467
344.7999999999999,-0.02671
344.99999999999994,-0.0276639999999999
345.1999999999999,-0.0287209999999999
345.3999999999999,-0.0302929999999999
345.6,-0.0330779999999999
345.7999999999999,-0.035344
345.99999999999994,-0.0348399999999999
346.1999999999999,-0.0337849999999999
346.3999999999999,-0.034232
346.6,-0.0344389999999998
346.7999999999999,-0.0341739999999999
346.99999999999994,-0.0315719999999999
347.1999999999999,-0.0312049999999999
347.3999999999999,-0.03133
347.6,-0.0308869999999998
347.7999999999999,-0.031079
347.99999999999994,-0.0361759999999999
348.1999999999999,-0.038146
348.3999999999999,-0.036793
348.6,-0.0357119999999999
348.7999999999999,-0.0341959999999998
348.99999999999994,-0.0324219999999999
349.1999999999999,-0.0329569999999999
349.3999999999999,-0.0345869999999999
349.6,-0.0356159999999998
349.7999999999999,-0.034507
349.99999999999994,-0.0318179999999999
350.1999999999999,-0.0293729999999998
350.3999999999999,-0.0287349999999999
350.6,-0.028011
350.7999999999999,-0.029627
350.99999999999994,-0.029598
351.1999999999999,-0.0308269999999999
351.3999999999999,-0.0316559999999999
351.6,-0.0347819999999998
351.7999999999999,-0.037519
351.99999999999994,-0.0398009999999999
352.1999999999999,-0.0413569999999998
352.3999999999999,-0.0414369999999999
352.6,-0.0394459999999998
352.7999999999999,-0.0363739999999999
352.99999999999994,-0.0355659999999999
353.1999999999999,-0.033347
353.3999999999999,-0.031895
353.6,-0.0303809999999999
353.7999999999999,-0.0284649999999999
353.99999999999994,-0.026148
354.1999999999999,-0.0244579999999998
354.3999999999999,-0.0230879999999999
354.6,-0.0225169999999998
354.7999999999999,-0.025824
354.99999999999994,-0.02682
355.1999999999999,-0.026944
355.3999999999999,-0.0288599999999998
355.6,-0.0316279999999999
355.7999999999999,-0.0331559999999999
355.99999999999994,-0.034629
356.1999999999999,-0.0372909999999999
356.3999999999999,-0.038175
356.6,-0.0384789999999999
356.7999999999999,-0.036658
356.99999999999994,-0.0363089999999999
357.1999999999999,-0.035981
357.3999999999999,-0.0334529999999999
357.6,-0.0316609999999999
357.7999999999999,-0.0321169999999999
357.99999999999994,-0.033098
358.1999999999999,-0.0323299999999999
358.3999999999999,-0.033646
358.6,-0.036054
358.7999999999999,-0.0371719999999999
358.99999999999994,-0.0368899999999998
359.1999999999999,-0.0367549999999998
359.3999999999999,-0.0380519999999999
359.6,-0.037374
359.7999999999999,-0.0361279999999999
359.99999999999994,-0.038448
360.1999999999999,-0.038413
360.3999999999999,-0.0364569999999999
360.6,-0.034823
360.7999999999999,-0.0341949999999999
361.0,-0.0289719999999999
361.1999999999999,-0.0291099999999999
361.3999999999999,-0.0314809999999998
361.6,-0.0353509999999999
361.7999999999999,-0.0377089999999999
362.0,-0.0414099999999999
362.1999999999999,-0.0417009999999999
362.3999999999999,-0.0385659999999998
362.6,-0.034208
362.7999999999999,-0.030424
363.0,-0.0281929999999999
363.1999999999999,-0.0283469999999999
363.3999999999999,-0.030586
363.6,-0.0329859999999999
363.7999999999999,-0.0364539999999999
364.0,-0.03817
364.1999999999999,-0.0368379999999999
364.3999999999999,-0.0373459999999998
364.6,-0.0374459999999998
364.7999999999999,-0.037452
365.0,-0.0367089999999998
365.1999999999999,-0.039266
365.3999999999999,-0.0399529999999999
365.6,-0.0384219999999999
365.7999999999999,-0.0358199999999999
366.0,-0.03481
366.1999999999999,-0.032067
366.3999999999999,-0.0311539999999999
366.6,-0.0324599999999999
366.7999999999999,-0.0347059999999999
367.0,-0.0355259999999999
367.1999999999999,-0.035417
367.3999999999999,-0.0345169999999999
367.6,-0.0342419999999998
367.7999999999999,-0.034275
368.0,-0.034356
368.1999999999999,-0.0359089999999999
368.3999999999999,-0.037916
368.6,-0.0384499999999998
368.7999999999999,-0.0378709999999999
369.0,-0.0387979999999998
369.1999999999999,-0.0391559999999999
369.3999999999999,-0.0371129999999999
369.6,-0.0346929999999998
369.7999999999999,-0.0343089999999999
370.0,-0.03366
370.1999999999999,-0.0331399999999999
370.3999999999999,-0.032046
370.6,-0.0319099999999998
370.7999999999999,-0.0297709999999999
371.0,-0.029163
371.1999999999999,-0.027814
371.3999999999999,-0.0298249999999999
371.6,-0.031258
371.7999999999999,-0.0328109999999999
372.0,-0.033919
372.1999999999999,-0.0333079999999998
372.3999999999999,-0.030383
372.6,-0.028361
372.7999999999999,-0.027428
373.0,-0.0264039999999998
373.1999999999999,-0.0280199999999999
373.3999999999999,-0.0317339999999999
373.6,-0.0354939999999999
373.7999999999999,-0.037077
374.0,-0.03777
374.1999999999999,-0.0369649999999999
374.3999999999999,-0.0334099999999999
374.6,-0.02834
374.7999999999999,-0.0260849999999999
375.0,-0.0256749999999998
375.1999999999999,-0.0271569999999998
375.3999999999999,-0.030254
375.6,-0.0340659999999999
375.7999999999999,-0.036232
376.0,-0.035638
376.1999999999999,-0.035374
376.3999999999999,-0.0348939999999999
376.6,-0.0345059999999999
376.7999999999999,-0.0346929999999998
377.0,-0.0341
377.1999999999999,-0.0346789999999999
377.3999999999999,-0.0346089999999998
377.6,-0.0354999999999998
377.7999999999999,-0.035822
378.0,-0.0377989999999999
378.1999999999999,-0.037598
378.3999999999999,-0.03695
378.6,-0.035528
378.7999999999999,-0.0341879999999998
379.0,-0.033876
379.1999999999999,-0.0325389999999998
379.3999999999999,-0.0314069999999999
379.6,-0.0306459999999999
379.7999999999999,-0.030348
380.0,-0.029276
380.1999999999999,-0.030969
380.3999999999999,-0.0334039999999999
380.6,-0.0361869999999999
380.7999999999999,-0.038448
381.0,-0.039684
381.1999999999999,-0.037606
381.3999999999999,-0.0353989999999999
381.6,-0.0326789999999999
381.7999999999999,-0.03217
382.0,-0.034208
382.1999999999999,-0.037873
382.3999999999999,-0.040046
382.6,-0.0412079999999999
382.7999999999999,-0.0398229999999999
383.0,-0.0380069999999999
383.1999999999999,-0.0353559999999999
383.3999999999999,-0.0360469999999999
383.6,-0.0369889999999999
383.7999999999999,-0.037107
384.0,-0.035031
384.1999999999999,-0.0336859999999998
384.3999999999999,-0.0302819999999999
384.6,-0.0279259999999998
384.7999999999999,-0.02854
385.0,-0.0298849999999999
385.1999999999999,-0.030631
385.3999999999999,-0.03312
385.6,-0.034418
385.7999999999999,-0.0331909999999999
386.0,-0.0336159999999998
386.1999999999999,-0.0338389999999999
386.3999999999999,-0.0338399999999998
386.6,-0.035188
386.7999999999999,-0.0373509999999999
387.0,-0.0372159999999999
387.1999999999999,-0.0363919999999999
387.3999999999999,-0.035749
387.6,-0.0353269999999998
387.7999999999999,-0.0347619999999999
388.0,-0.0317129999999998
388.1999999999999,-0.031765
388.3999999999999,-0.0321709999999999
388.6,-0.033152
388.7999999999999,-0.0343919999999999
389.0,-0.038974
389.1999999999999,-0.041601
389.3999999999999,-0.041768
389.6,-0.04027
389.7999999999999,-0.0391509999999999
390.0,-0.0385119999999998
390.1999999999999,-0.0364039999999998
390.3999999999999,-0.034985
390.6,-0.0325739999999998
390.7999999999999,-0.0302499999999998
391.0,-0.0287999999999999
391.1999999999999,-0.029568
391.3999999999999,-0.030548
391.6,-0.030747
391.7999999999999,-0.0320499999999999
392.0,-0.032985
392.1999999999999,-0.0343959999999998
392.3999999999999,-0.034116
392.6,-0.0354939999999999
392.7999999999999,-0.0366709999999999
393.0,-0.0348059999999998
393.1999999999999,-0.0324249999999999
393.3999999999999,-0.0296279999999999
393.6,-0.0279
393.7999999999999,-0.023401
394.0,-0.021703
394.1999999999999,-0.0218169999999999
394.3999999999999,-0.0251909999999999
394.6,-0.0266739999999998
394.7999999999999,-0.0305009999999998
395.0,-0.0349459999999999
395.1999999999999,-0.0383109999999999
395.3999999999999,-0.0391669999999999
395.6,-0.0407979999999998
395.7999999999999,-0.040397
396.0,-0.0388889999999999
396.1999999999999,-0.036111
396.3999999999999,-0.0340789999999999
396.6,-0.032583
396.7999999999999,-0.033538
397.0,-0.03631
397.1999999999999,-0.038594
397.3999999999999,-0.040731
397.6,-0.0395229999999999
397.7999999999999,-0.037533
398.0,-0.035322
398.1999999999999,-0.0334769999999999
398.3999999999999,-0.0306519999999999
398.6,-0.0314129999999999
398.7999999999999,-0.0330299999999998
399.0,-0.0327059999999999
399.1999999999999,-0.0302919999999999
399.3999999999999,-0.027587
399.6,-0.0265389999999998
399.7999999999999,-0.027195
400.0,-0.0296449999999999
400.1999999999999,-0.0340789999999999
400.3999999999999,-0.0383039999999998
400.6,-0.040569
400.7999999999999,-0.040753
401.0,-0.0393129999999999
401.1999999999999,-0.0361259999999998
401.3999999999999,-0.034245
401.6,-0.0331609999999999
401.7999999999999,-0.0298069999999999
402.0,-0.027344
402.1999999999999,-0.028388
402.3999999999999,-0.0289019999999999
402.6,-0.029012
402.7999999999999,-0.030877
403.0,-0.0313159999999999
403.1999999999999,-0.030429
403.3999999999999,-0.0301919999999999
403.6,-0.031023
403.7999999999999,-0.0295419999999999
404.0,-0.028394
404.1999999999999,-0.0265919999999999
404.3999999999999,-0.025525
404.6,-0.026715
404.7999999999999,-0.0289219999999998
405.0,-0.031152
405.1999999999999,-0.0337859999999998
405.3999999999999,-0.0351399999999999
405.6,-0.0329319999999999
405.7999999999999,-0.0319689999999999
406.0,-0.031301
406.1999999999999,-0.0321799999999998
406.3999999999999,-0.033382
406.6,-0.032866
406.7999999999999,-0.0336779999999998
407.0,-0.0331949999999998
407.1999999999999,-0.032221
407.3999999999999,-0.031733
407.6,-0.034127
407.7999999999999,-0.0350869999999998
408.0,-0.0361149999999999
408.1999999999999,-0.035217
408.3999999999999,-0.0351429999999999
408.6,-0.035366
408.7999999999999,-0.035824
409.0,-0.037541
409.1999999999999,-0.0392019999999999
409.3999999999999,-0.0403599999999999
409.6,-0.0414369999999999
409.7999999999999,-0.0389159999999999
410.0,-0.036224
410.1999999999999,-0.0342599999999999
410.3999999999999,-0.0334669999999999
410.6,-0.0315829999999999
410.7999999999999,-0.0331189999999999
411.0,-0.0350889999999999
411.1999999999999,-0.0377019999999999
411.3999999999999,-0.0389949999999998
411.6,-0.0409429999999999
411.7999999999999,-0.043115
412.0,-0.044059
412.1999999999999,-0.041833
412.3999999999999,-0.038494
412.6,-0.034569
412.7999999999999,-0.0340519999999999
413.0,-0.0357119999999999
413.1999999999999,-0.038054
413.3999999999999,-0.03993
413.6,-0.0404059999999999
413.7999999999999,-0.0384959999999998
414.0,-0.036491
414.1999999999999,-0.0376419999999999
414.3999999999999,-0.0402409999999999
414.6,-0.04258
414.7999999999999,-0.043714
415.0,-0.041476
415.1999999999999,-0.0391679999999998
415.3999999999999,-0.03655
415.6,-0.034513
415.7999999999999,-0.032731
416.0,-0.032718
416.1999999999999,-0.0327869999999999
416.3999999999999,-0.033827
416.6,-0.0370589999999999
416.7999999999999,-0.039363
417.0,-0.0425809999999999
417.1999999999999,-0.0435389999999999
417.3999999999999,-0.0442
417.6,-0.0447029999999999
417.7999999999999,-0.0458769999999999
418.0,-0.044518
418.1999999999999,-0.0439769999999999
418.3999999999999,-0.0437939999999998
418.6,-0.0426779999999999
418.7999999999999,-0.04156
419.0,-0.0407329999999999
419.1999999999999,-0.0414259999999999
419.3999999999999,-0.040073
419.6,-0.0389269999999999
419.7999999999999,-0.0367089999999998
420.0,-0.0353079999999998
420.1999999999999,-0.032602
420.3999999999999,-0.0330029999999998
420.6,-0.0335779999999998
420.7999999999999,-0.0354259999999999
421.0,-0.0365619999999999
421.1999999999999,-0.039053
421.3999999999999,-0.0409299999999999
421.6,-0.042783
421.7999999999999,-0.04065
422.0,-0.0394749999999999
422.1999999999999,-0.0380829999999998
422.3999999999999,-0.0348519999999998
422.6,-0.0310099999999999
422.7999999999999,-0.0294879999999999
423.0,-0.030227
423.1999999999999,-0.0313669999999999
423.3999999999999,-0.0341869999999999
423.6,-0.0384009999999999
423.7999999999999,-0.0435049999999999
424.0,-0.0471289999999999
424.1999999999999,-0.0482609999999998
424.3999999999999,-0.048219
424.6,-0.0454049999999999
424.7999999999999,-0.0427009999999998
425.0,-0.0416129999999999
425.1999999999999,-0.0428299999999999
425.3999999999999,-0.0445469999999998
425.6,-0.0465919999999999
425.7999999999999,-0.0481149999999999
426.0,-0.0474559999999999
426.1999999999999,-0.0443499999999998
426.3999999999999,-0.0406429999999999
426.6,-0.039592
426.7999999999999,-0.039296
427.0,-0.037994
427.1999999999999,-0.0373459999999998
427.3999999999999,-0.03708
427.6,-0.0366949999999999
427.7999999999999,-0.0362649999999999
428.0,-0.039306
428.1999999999999,-0.042175
428.3999999999999,-0.044084
428.6,-0.043816
428.7999999999999,-0.0446709999999999
429.0,-0.042184
429.1999999999999,-0.04064
429.3999999999999,-0.0383459999999999
429.6,-0.0372969999999999
429.7999999999999,-0.0351109999999998
430.0,-0.035433
430.1999999999999,-0.0340529999999998
430.3999999999999,-0.0336559999999999
430.6,-0.0313849999999999
430.7999999999999,-0.032062
431.0,-0.0321339999999998
431.1999999999999,-0.0339629999999999
431.3999999999999,-0.0369569999999999
431.6,-0.041598
431.7999999999999,-0.043525
432.0,-0.0447199999999998
432.1999999999999,-0.043611
432.3999999999999,-0.0435189999999998
432.6,-0.0420169999999999
432.7999999999999,-0.041582
433.0,-0.042003
433.1999999999999,-0.0452759999999998
433.3999999999999,-0.044731
433.6,-0.044062
433.7999999999999,-0.04288
434.0,-0.041301
434.1999999999999,-0.0382119999999999
434.3999999999999,-0.0373229999999999
434.6,-0.0378129999999998
434.7999999999999,-0.037414
435.0,-0.0354639999999999
435.1999999999999,-0.0369709999999998
435.3999999999999,-0.03848
435.6,-0.0396309999999999
435.7999999999999,-0.040777
436.0,-0.0419169999999999
436.1999999999999,-0.041131
436.3999999999999,-0.040256
436.6,-0.0383879999999998
436.7999999999999,-0.0354239999999999
437.0,-0.0327999999999999
437.1999999999999,-0.0316669999999998
437.3999999999999,-0.0309159999999999
437.6,-0.031568
437.7999999999999,-0.0355739999999999
438.0,-0.039797
438.1999999999999,-0.0426789999999999
438.3999999999999,-0.0436
438.6,-0.044229
438.7999999999999,-0.0433859999999999
439.0,-0.045101
439.1999999999999,-0.044062
439.3999999999999,-0.0432559999999999
439.6,-0.04153
439.7999999999999,-0.0396369999999999
440.0,-0.0363249999999999
440.1999999999999,-0.0348299999999999
440.3999999999999,-0.0331509999999999
440.6,-0.032483
440.7999999999999,-0.03333
441.0,-0.034262
441.1999999999999,-0.034912
441.3999999999999,-0.0361609999999998
441.6,-0.0385349999999999
441.7999999999999,-0.038308
442.0,-0.0383039999999998
442.1999999999999,-0.037206
442.3999999999999,-0.037722
442.6,-0.037115
442.7999999999999,-0.038032
443.0,-0.0367359999999998
443.1999999999999,-0.0393319999999999
443.3999999999999,-0.0408789999999998
443.6,-0.0403789999999999
443.7999999999999,-0.0383149999999998
444.0,-0.0362219999999999
444.1999999999999,-0.03342
444.3999999999999,-0.032119
444.6,-0.034715
444.7999999999999,-0.0384379999999999
445.0,-0.0428699999999999
445.1999999999999,-0.045846
445.3999999999999,-0.0481009999999999
445.6,-0.048448
445.7999999999999,-0.046958
446.0,-0.0458609999999999
446.1999999999999,-0.0442179999999998
446.3999999999999,-0.039746
446.6,-0.03455
446.7999999999999,-0.0322339999999998
447.0,-0.030707
447.1999999999999,-0.0297609999999999
447.3999999999999,-0.0305599999999999
447.6,-0.0330329999999998
447.7999999999999,-0.035819
448.0,-0.0386709999999999
448.1999999999999,-0.041204
448.3999999999999,-0.0431219999999998
448.6,-0.043843
448.7999999999999,-0.042588
449.0,-0.0405819999999998
449.1999999999999,-0.0387059999999999
449.3999999999999,-0.0375539999999998
449.6,-0.0378899999999999
449.7999999999999,-0.0386649999999999
450.0,-0.0423579999999998
450.1999999999999,-0.0434069999999999
450.3999999999999,-0.0446809999999999
450.6,-0.0438799999999999
450.7999999999999,-0.042931
451.0,-0.040051
451.1999999999999,-0.040613
451.3999999999999,-0.040899
451.6,-0.0427889999999999
451.7999999999999,-0.0448079999999999
452.0,-0.0449559999999999
452.1999999999999,-0.0432569999999998
452.3999999999999,-0.042354
452.6,-0.0412779999999999
452.7999999999999,-0.040354
453.0,-0.0404919999999999
453.1999999999999,-0.0426269999999999
453.3999999999999,-0.0433339999999999
453.6,-0.0433829999999999
453.7999999999999,-0.04213
454.0,-0.0425059999999999
454.1999999999999,-0.041036
454.3999999999999,-0.040197
454.6,-0.039762
454.7999999999999,-0.0414639999999999
455.0,-0.041204
455.1999999999999,-0.0408399999999999
455.3999999999999,-0.040556
455.6,-0.0402
455.7999999999999,-0.0403519999999999
456.0,-0.0396309999999999
456.1999999999999,-0.0392129999999999
456.3999999999999,-0.038356
456.6,-0.037665
456.7999999999999,-0.0359209999999998
457.0,-0.0362799999999998
457.1999999999999,-0.0379369999999998
457.3999999999999,-0.0386779999999999
457.6,-0.0394019999999999
457.7999999999999,-0.039908
458.0,-0.0396289999999999
458.1999999999999,-0.0409919999999999
458.3999999999999,-0.0437399999999998
458.6,-0.0445489999999999
458.7999999999999,-0.044416
459.0,-0.0436529999999999
459.1999999999999,-0.0410379999999999
459.3999999999999,-0.039225
459.6,-0.0384679999999999
459.7999999999999,-0.0368489999999999
460.0,-0.037649
460.1999999999999,-0.0387279999999998
460.3999999999999,-0.0399879999999999
460.6,-0.0424519999999999
460.7999999999999,-0.045709
461.0,-0.045714
461.1999999999999,-0.0441419999999999
461.3999999999999,-0.0433559999999999
461.6,-0.042019
461.7999999999999,-0.041911
462.0,-0.0419209999999998
462.1999999999999,-0.042926
462.3999999999999,-0.0427889999999999
462.6,-0.0439929999999999
462.7999999999999,-0.0428329999999999
463.0,-0.043892
463.1999999999999,-0.0423789999999999
463.3999999999999,-0.0403739999999999
463.6,-0.0379689999999999
463.7999999999999,-0.036443
464.0,-0.035109
464.1999999999999,-0.0384569999999999
464.3999999999999,-0.0411729999999999
464.6,-0.0424379999999999
464.7999999999999,-0.044246
465.0,-0.0467819999999998
465.1999999999999,-0.046677
465.3999999999999,-0.0459629999999999
465.6,-0.046618
465.7999999999999,-0.0463689999999998
466.0,-0.0417959999999999
466.1999999999999,-0.03851
466.3999999999999,-0.0383519999999999
466.6,-0.037304
466.7999999999999,-0.036561
467.0,-0.0370759999999998
467.1999999999999,-0.0370349999999999
467.3999999999999,-0.0360449999999998
467.6,-0.035884
467.7999999999999,-0.037474
468.0,-0.0412449999999999
468.1999999999999,-0.0452699999999999
468.3999999999999,-0.0481279999999999
468.6,-0.0482719999999998
468.7999999999999,-0.047385
469.0,-0.04552
469.1999999999999,-0.0434779999999999
469.3999999999999,-0.040745
469.6,-0.039949
469.7999999999999,-0.0395589999999999
470.0,-0.0394749999999999
470.1999999999999,-0.0389539999999999
470.3999999999999,-0.040837
470.6,-0.043482
470.7999999999999,-0.0452649999999998
471.0,-0.045279
471.1999999999999,-0.045806
471.3999999999999,-0.0435229999999999
471.6,-0.0413049999999999
471.7999999999999,-0.0391019999999999
472.0,-0.0397769999999999
472.1999999999999,-0.0386089999999998
472.3999999999999,-0.0405599999999999
472.6,-0.0418389999999999
472.7999999999999,-0.043889
473.0,-0.044105
473.1999999999999,-0.0466219999999999
473.3999999999999,-0.0470789999999998
473.6,-0.0466459999999999
473.7999999999999,-0.0446279999999998
474.0,-0.041906
474.1999999999999,-0.03966
474.3999999999999,-0.0379129999999998
474.6,-0.0375069999999999
474.7999999999999,-0.0384059999999999
475.0,-0.0408749999999999
475.1999999999999,-0.0404139999999999
475.3999999999999,-0.040748
475.6,-0.041295
475.7999999999999,-0.042178
476.0,-0.042928
476.1999999999999,-0.0466489999999999
476.3999999999999,-0.0503689999999998
476.6,-0.049984
476.7999999999999,-0.050024
477.0,-0.0484029999999999
477.1999999999999,-0.045949
477.3999999999999,-0.040764
477.6,-0.042003
477.7999999999999,-0.041887
478.0,-0.0422629999999999
478.1999999999999,-0.0406089999999998
478.3999999999999,-0.0417819999999999
478.6,-0.0412909999999999
478.7999999999999,-0.041995
479.0,-0.0430539999999999
479.1999999999999,-0.0447999999999999
479.3999999999999,-0.0459549999999999
479.6,-0.04485
479.7999999999999,-0.0420529999999998
480.0,-0.0418399999999998
480.1999999999999,-0.0447739999999998
480.3999999999999,-0.0472779999999999
480.6,-0.04657
480.7999999999999,-0.046038
481.0,-0.0449299999999999
481.1999999999999,-0.0418309999999999
481.3999999999999,-0.0397389999999999
481.6,-0.0393809999999998
481.7999999999999,-0.041444
482.0,-0.0421869999999999
482.1999999999999,-0.041717
482.3999999999999,-0.0403229999999998
482.6,-0.0428899999999998
482.7999999999999,-0.043865
483.0,-0.0434969999999999
483.1999999999999,-0.0432879999999999
483.3999999999999,-0.0434019999999999
483.6,-0.0429329999999998
483.7999999999999,-0.04152
484.0,-0.040046
484.1999999999999,-0.0409289999999999
484.3999999999999,-0.044175
484.6,-0.045433
484.7999999999999,-0.045849
485.0,-0.0464679999999999
485.1999999999999,-0.045171
485.3999999999999,-0.042024
485.6,-0.039196
485.7999999999999,-0.040615
486.0,-0.0417289999999999
486.1999999999999,-0.0431839999999998
486.3999999999999,-0.0402609999999998
486.6,-0.0376559999999999
486.7999999999999,-0.0349319999999999
487.0,-0.0340679999999999
487.1999999999999,-0.031638
487.3999999999999,-0.034945
487.6,-0.0395269999999998
487.7999999999999,-0.0421659999999999
488.0,-0.044181
488.1999999999999,-0.0479519999999999
488.3999999999999,-0.0499179999999999
488.6,-0.04858
488.7999999999999,-0.0443979999999999
489.0,-0.0411839999999998
489.1999999999999,-0.038769
489.3999999999999,-0.0370559999999999
489.6,-0.0383149999999998
489.7999999999999,-0.0422659999999999
490.0,-0.0451859999999999
490.1999999999999,-0.0467679999999999
490.3999999999999,-0.0469889999999999
490.6,-0.0444029999999999
490.7999999999999,-0.042424
491.0,-0.0407319999999999
491.1999999999999,-0.041042
491.3999999999999,-0.0411569999999998
491.6,-0.042796
491.7999999999999,-0.0425979999999999
492.0,-0.042389
492.1999999999999,-0.0417589999999998
492.3999999999999,-0.043908
492.6,-0.0454799999999999
492.7999999999999,-0.0477319999999998
493.0,-0.047028
493.1999999999999,-0.046988
493.3999999999999,-0.0455889999999998
493.6,-0.045676
493.7999999999999,-0.0449509999999999
494.0,-0.0461789999999999
494.1999999999999,-0.04519
494.3999999999999,-0.044721
494.6,-0.0429589999999999
494.7999999999999,-0.0420249999999999
495.0,-0.0422259999999998
495.1999999999999,-0.0426629999999998
495.3999999999999,-0.0417959999999999
495.6,-0.0420259999999999
495.7999999999999,-0.04285
496.0,-0.0439979999999999
496.1999999999999,-0.0456159999999998
496.3999999999999,-0.046337
496.6,-0.04556
496.7999999999999,-0.045682
497.0,-0.0451209999999999
497.1999999999999,-0.0438119999999999
497.3999999999999,-0.044758
497.6,-0.046569
497.7999999999999,-0.047703
498.0,-0.0489189999999999
498.1999999999999,-0.0494559999999999
498.3999999999999,-0.0480019999999998
498.6,-0.0467169999999999
498.7999999999999,-0.0465459999999999
499.0,-0.0469709999999998
499.1999999999999,-0.046785
499.3999999999999,-0.0467509999999999
499.6,-0.046891
499.7999999999999,-0.0461
500.0,-0.0450749999999999
500.1999999999999,-0.04651
500.3999999999999,-0.0472489999999998
500.6,-0.045959
500.7999999999999,-0.045957
501.0,-0.04549
501.1999999999999,-0.042238
501.3999999999999,-0.0401449999999998
501.6,-0.0412939999999999
501.7999999999999,-0.041296
502.0,-0.04102
502.1999999999999,-0.0432449999999999
502.3999999999999,-0.0447239999999999
502.6,-0.045633
502.7999999999999,-0.044742
503.0,-0.042991
503.1999999999999,-0.0402439999999999
503.3999999999999,-0.039479
503.6,-0.0392379999999998
503.7999999999999,-0.0401259999999998
504.0,-0.041765
504.1999999999999,-0.0425439999999999
504.3999999999999,-0.042691
504.6,-0.0422949999999999
504.7999999999999,-0.0447789999999999
505.0,-0.0448539999999999
505.1999999999999,-0.0441529999999998
505.3999999999999,-0.0455639999999999
505.6,-0.045371
505.7999999999999,-0.0417829999999999
506.0,-0.041787
506.1999999999999,-0.044383
506.3999999999999,-0.0448079999999999
506.6,-0.0463709999999999
506.7999999999999,-0.0464469999999999
507.0,-0.0444649999999999
507.1999999999999,-0.04339
507.3999999999999,-0.0440979999999999
507.6,-0.0426569999999999
507.7999999999999,-0.041061
508.0,-0.0400329999999999
508.1999999999999,-0.0389409999999998
508.3999999999999,-0.036756
508.6,-0.0364519999999999
508.7999999999999,-0.03899
509.0,-0.0429049999999999
509.1999999999999,-0.0453259999999999
509.3999999999999,-0.0437799999999999
509.6,-0.0430029999999999
509.7999999999999,-0.039811
510.0,-0.037231
510.1999999999999,-0.0335289999999999
510.3999999999999,-0.0337
510.6,-0.0338369999999998
510.7999999999999,-0.0372589999999999
511.0,-0.040467
511.1999999999999,-0.04471
511.3999999999999,-0.047525
511.6,-0.048081
511.7999999999999,-0.0472489999999998
512.0,-0.047115
512.1999999999998,-0.0461089999999999
512.3999999999999,-0.0442629999999999
512.5999999999999,-0.044464
512.8,-0.0451889999999999
513.0,-0.043093
513.1999999999998,-0.042821
513.3999999999999,-0.044772
513.5999999999999,-0.04576
513.8,-0.0441139999999999
514.0,-0.0436289999999999
514.1999999999998,-0.0456779999999998
514.3999999999999,-0.04661
514.5999999999999,-0.0466929999999998
514.8,-0.0474209999999999
515.0,-0.049325
515.1999999999998,-0.047457
515.3999999999999,-0.0443959999999998
515.5999999999999,-0.042945
515.8,-0.044532
516.0,-0.044316
516.1999999999998,-0.043468
516.3999999999999,-0.04213
516.5999999999999,-0.04078
516.8,-0.036912
517.0,-0.0349909999999999
517.1999999999998,-0.0351939999999999
517.3999999999999,-0.037994
517.5999999999999,-0.0421419999999999
517.8,-0.047047
518.0,-0.0520709999999999
518.1999999999998,-0.0556049999999999
518.3999999999999,-0.0593289999999999
518.5999999999999,-0.059252
518.8,-0.0570049999999999
519.0,-0.051978
519.1999999999998,-0.048861
519.3999999999999,-0.0448569999999999
519.5999999999999,-0.043905
519.8,-0.0437689999999999
520.0,-0.0454749999999999
520.1999999999998,-0.046767
520.3999999999999,-0.048159
520.5999999999999,-0.0485839999999999
520.8,-0.048202
521.0,-0.0471369999999999
521.1999999999998,-0.0443279999999999
521.3999999999999,-0.0433529999999999
521.5999999999999,-0.0435229999999999
521.8,-0.045709
522.0,-0.048283
522.1999999999998,-0.050019
522.3999999999999,-0.0480549999999999
522.5999999999999,-0.046246
522.8,-0.0450749999999999
523.0,-0.042942
523.1999999999998,-0.042942
523.3999999999999,-0.045039
523.5999999999999,-0.0440209999999998
523.8,-0.0436149999999999
524.0,-0.0448699999999999
524.1999999999998,-0.046086
524.3999999999999,-0.0476929999999999
524.5999999999999,-0.0495129999999999
524.8,-0.050094
525.0,-0.048667
525.1999999999998,-0.048678
525.3999999999999,-0.0491539999999999
525.5999999999999,-0.0504419999999998
525.8,-0.0503929999999999
526.0,-0.0506789999999999
526.1999999999998,-0.0487159999999999
526.3999999999999,-0.045325
526.5999999999999,-0.04414
526.8,-0.0433829999999999
527.0,-0.042221
527.1999999999998,-0.0429479999999999
527.3999999999999,-0.0444759999999999
527.5999999999999,-0.0454209999999999
527.8,-0.046521
528.0,-0.047053
528.1999999999998,-0.0454559999999999
528.3999999999999,-0.0437699999999998
528.5999999999999,-0.042065
528.8,-0.0396749999999999
529.0,-0.0397589999999998
529.1999999999998,-0.039865
529.3999999999999,-0.0395289999999999
529.5999999999999,-0.0369209999999999
529.8,-0.034278
530.0,-0.0317609999999999
530.1999999999998,-0.031719
530.3999999999999,-0.0344819999999999
530.5999999999999,-0.03797
530.8,-0.0437559999999999
531.0,-0.04885
531.1999999999998,-0.052316
531.3999999999999,-0.0500899999999999
531.5999999999999,-0.050122
531.8,-0.0497669999999998
532.0,-0.049101
532.1999999999998,-0.047018
532.3999999999999,-0.0488539999999999
532.5999999999999,-0.046928
532.8,-0.0465109999999999
533.0,-0.04559
533.1999999999998,-0.046265
533.3999999999999,-0.0457129999999998
533.5999999999999,-0.0466359999999999
533.8,-0.0449269999999999
534.0,-0.0443999999999999
534.1999999999998,-0.047431
534.3999999999999,-0.0503089999999999
534.5999999999999,-0.0516779999999998
534.8,-0.053552
535.0,-0.054945
535.1999999999998,-0.0526839999999999
535.3999999999999,-0.0509619999999999
535.5999999999999,-0.050235
535.8,-0.0491179999999999
536.0,-0.0471699999999999
536.1999999999998,-0.045139
536.3999999999999,-0.045449
536.5999999999999,-0.0460389999999999
536.8,-0.046885
537.0,-0.048837
537.1999999999998,-0.05007
537.3999999999999,-0.0485929999999998
537.5999999999999,-0.0479669999999998
537.8,-0.0485809999999999
538.0,-0.047012
538.1999999999998,-0.0452859999999999
538.3999999999999,-0.0439979999999999
538.5999999999999,-0.0439479999999998
538.8,-0.043169
539.0,-0.0448109999999999
539.1999999999998,-0.0483309999999999
539.3999999999999,-0.0497119999999999
539.5999999999999,-0.052159
539.8,-0.0537369999999999
540.0,-0.054475
540.1999999999998,-0.051995
540.3999999999999,-0.0504069999999998
540.5999999999999,-0.044969
540.8,-0.0422599999999999
541.0,-0.039528
541.1999999999998,-0.039331
541.3999999999999,-0.040607
541.5999999999999,-0.045134
541.8,-0.0476289999999999
542.0,-0.051118
542.1999999999998,-0.0510059999999998
542.3999999999999,-0.0511839999999998
542.5999999999999,-0.0506849999999998
542.8,-0.049045
543.0,-0.046939
543.1999999999998,-0.0486439999999999
543.3999999999999,-0.0486929999999998
543.5999999999999,-0.047255
543.8,-0.0482679999999999
544.0,-0.0487089999999998
544.1999999999998,-0.048448
544.3999999999999,-0.050259
544.5999999999999,-0.051225
544.8,-0.050399
545.0,-0.0520339999999999
545.1999999999998,-0.0524
545.3999999999999,-0.048677
545.5999999999999,-0.048634
545.8,-0.0513459999999998
546.0,-0.050872
546.1999999999998,-0.049919
546.3999999999999,-0.0513259999999999
546.5999999999999,-0.051593
546.8,-0.048669
547.0,-0.047976
547.1999999999998,-0.0489509999999999
547.3999999999999,-0.048373
547.5999999999999,-0.0470029999999999
547.8,-0.047085
548.0,-0.0474429999999999
548.1999999999998,-0.045978
548.3999999999999,-0.0444329999999999
548.5999999999999,-0.0427759999999999
548.8,-0.039266
549.0,-0.0364299999999999
549.1999999999998,-0.03655
549.3999999999999,-0.0416429999999998
549.5999999999999,-0.0441529999999998
549.8,-0.0472299999999998
550.0,-0.0466969999999999
550.1999999999998,-0.046327
550.3999999999999,-0.044829
550.5999999999999,-0.046246
550.8,-0.05041
551.0,-0.0555239999999999
551.1999999999998,-0.0589129999999999
551.3999999999999,-0.056972
551.5999999999999,-0.05315
551.8,-0.048364
552.0,-0.0449519999999998
552.1999999999998,-0.0423929999999999
552.3999999999999,-0.0418899999999999
552.5999999999999,-0.042783
552.8,-0.043377
553.0,-0.0438859999999998
553.1999999999998,-0.0440259999999999
553.3999999999999,-0.046092
553.5999999999999,-0.049263
553.8,-0.050624
554.0,-0.0496989999999999
554.1999999999998,-0.049749
554.3999999999999,-0.050543
554.5999999999999,-0.049709
554.8,-0.047309
555.0,-0.0489129999999999
555.1999999999998,-0.0488029999999999
555.3999999999999,-0.048289
555.5999999999999,-0.0469869999999998
555.8,-0.0497039999999999
556.0,-0.052686
556.1999999999998,-0.054834
556.3999999999999,-0.0537289999999999
556.5999999999999,-0.0537289999999999
556.8,-0.0530509999999999
557.0,-0.048421
557.1999999999998,-0.045169
557.3999999999999,-0.045377
557.5999999999999,-0.0483879999999998
557.8,-0.049498
558.0,-0.0517849999999999
558.1999999999998,-0.0543039999999999
558.3999999999999,-0.055587
558.5999999999999,-0.053584
558.8,-0.05135
559.0,-0.0478069999999999
559.1999999999998,-0.045017
559.3999999999999,-0.0435309999999999
559.5999999999999,-0.042157
559.8,-0.0413749999999999
560.0,-0.0431219999999998
560.1999999999998,-0.0446029999999999
560.3999999999999,-0.0446929999999998
560.5999999999999,-0.0447839999999999
560.8,-0.0482199999999999
561.0,-0.0505329999999999
561.1999999999998,-0.052289
561.3999999999999,-0.052845
561.5999999999999,-0.0531639999999999
561.8,-0.051798
562.0,-0.0511869999999998
562.1999999999998,-0.0497699999999998
562.3999999999999,-0.0499309999999999
562.5999999999999,-0.0505619999999999
562.8,-0.0513489999999998
563.0,-0.050985
563.1999999999998,-0.0491869999999998
563.3999999999999,-0.049082
563.5999999999999,-0.049908
563.8,-0.0511159999999999
564.0,-0.051517
564.1999999999998,-0.0539669999999998
564.3999999999999,-0.0536069999999999
564.5999999999999,-0.0521689999999999
564.8,-0.0497909999999999
565.0,-0.0500309999999999
565.1999999999998,-0.0494189999999998
565.3999999999999,-0.0508679999999999
565.5999999999999,-0.0518129999999998
565.8,-0.051382
566.0,-0.0495589999999999
566.1999999999998,-0.047185
566.3999999999999,-0.0451189999999999
566.5999999999999,-0.0442979999999999
566.8,-0.0461169999999999
567.0,-0.0464409999999999
567.1999999999998,-0.0480979999999999
567.3999999999999,-0.048791
567.5999999999999,-0.0506329999999999
567.8,-0.0501789999999999
568.0,-0.0520099999999998
568.1999999999998,-0.0535719999999999
568.3999999999999,-0.051843
568.5999999999999,-0.047422
568.8,-0.044049
569.0,-0.041155
569.1999999999998,-0.040823
569.3999999999999,-0.0435189999999998
569.5999999999999,-0.046362
569.8,-0.047536
570.0,-0.048046
570.1999999999998,-0.045968
570.3999999999999,-0.044346
570.5999999999999,-0.0446159999999999
570.8,-0.0478639999999999
571.0,-0.049957
571.1999999999998,-0.0516479999999999
571.3999999999999,-0.0523799999999998
571.5999999999999,-0.0540519999999999
571.8,-0.054311
572.0,-0.053574
572.1999999999998,-0.0530219999999999
572.3999999999999,-0.0540119999999999
572.5999999999999,-0.053485
572.8,-0.0505809999999999
573.0,-0.048977
573.1999999999998,-0.0487929999999998
573.3999999999999,-0.047444
573.5999999999999,-0.046378
573.8,-0.0486839999999999
573.9999999999998,-0.0512649999999998
574.1999999999998,-0.0529219999999999
574.3999999999999,-0.054154
574.5999999999999,-0.0525919999999999
574.8,-0.0494379999999998
574.9999999999998,-0.0477909999999999
575.1999999999998,-0.048219
575.3999999999999,-0.0485819999999999
575.5999999999999,-0.050232
575.8,-0.0514229999999999
575.9999999999998,-0.0499859999999998
576.1999999999998,-0.048391
576.3999999999999,-0.0472649999999998
576.5999999999999,-0.0482979999999999
576.8,-0.0510269999999999
576.9999999999998,-0.054618
577.1999999999998,-0.0557399999999999
577.3999999999999,-0.056019
577.5999999999999,-0.0559769999999999
577.8,-0.056508
577.9999999999998,-0.0552919999999999
578.1999999999998,-0.0513699999999999
578.3999999999999,-0.0485249999999999
578.5999999999999,-0.046621
578.8,-0.0445469999999998
578.9999999999998,-0.0439659999999999
579.1999999999998,-0.0470519999999998
579.3999999999999,-0.0492179999999999
579.5999999999999,-0.048032
579.8,-0.0464789999999999
579.9999999999998,-0.0448789999999998
580.1999999999998,-0.0444869999999999
580.3999999999999,-0.0456989999999999
580.5999999999999,-0.0480149999999999
580.8,-0.0481409999999999
580.9999999999998,-0.048807
581.1999999999998,-0.0473269999999999
581.3999999999999,-0.0459389999999999
581.5999999999999,-0.0452809999999999
581.8,-0.045768
581.9999999999998,-0.046502
582.1999999999998,-0.0477739999999999
582.3999999999999,-0.0490409999999998
582.5999999999999,-0.0480329999999999
582.8,-0.0469159999999999
582.9999999999998,-0.0472099999999999
583.1999999999998,-0.049166
583.3999999999999,-0.0509189999999999
583.5999999999999,-0.053047
583.8,-0.0543519999999999
583.9999999999998,-0.0513619999999999
584.1999999999998,-0.0476039999999999
584.3999999999999,-0.0447379999999999
584.5999999999999,-0.0460149999999999
584.8,-0.0483279999999999
584.9999999999998,-0.0532509999999999
585.1999999999998,-0.05658
585.3999999999999,-0.060051
585.5999999999999,-0.059387
585.8,-0.0587699999999999
585.9999999999998,-0.0575729999999998
586.1999999999998,-0.0552919999999999
586.3999999999999,-0.049763
586.5999999999999,-0.0465759999999999
586.8,-0.045709
586.9999999999998,-0.046321
587.1999999999998,-0.0484919999999999
587.3999999999999,-0.0510509999999999
587.5999999999999,-0.0532829999999999
587.8,-0.0519579999999999
587.9999999999998,-0.051193
588.1999999999998,-0.0490709999999998
588.3999999999999,-0.0487219999999999
588.5999999999999,-0.0505569999999999
588.8,-0.0557129999999999
588.9999999999998,-0.0557339999999999
589.1999999999998,-0.0561169999999999
589.3999999999999,-0.0570519999999998
589.5999999999999,-0.0562409999999999
589.8,-0.0539199999999999
589.9999999999998,-0.056367
590.1999999999998,-0.0591539999999999
590.3999999999999,-0.0599279999999999
590.5999999999999,-0.0594029999999998
590.8,-0.0579579999999999
590.9999999999998,-0.0547199999999998
591.1999999999998,-0.050588
591.3999999999999,-0.0472349999999999
591.5999999999999,-0.0457779999999998
591.8,-0.0447199999999998
591.9999999999998,-0.0473149999999999
592.1999999999998,-0.0519129999999998
592.3999999999999,-0.054923
592.5999999999999,-0.0576399999999999
592.8,-0.06115
592.9999999999998,-0.0620769999999999
593.1999999999998,-0.0626789999999999
593.3999999999999,-0.064586
593.5999999999999,-0.0634259999999999
593.8,-0.0590379999999999
593.9999999999998,-0.0522309999999999
594.1999999999998,-0.0466199999999998
594.3999999999999,-0.0423299999999999
594.5999999999999,-0.0386819999999998
594.8,-0.037752
594.9999999999998,-0.0410349999999999
595.1999999999998,-0.044804
595.3999999999999,-0.0477369999999999
595.5999999999999,-0.051512
595.8,-0.05366
595.9999999999998,-0.0528519999999999
596.1999999999998,-0.051093
596.3999999999999,-0.0498819999999999
596.5999999999999,-0.04895
596.8,-0.0479549999999999
596.9999999999998,-0.0476079999999998
597.1999999999998,-0.0478549999999999
597.3999999999999,-0.046435
597.5999999999999,-0.045576
597.8,-0.045598
597.9999999999998,-0.0480169999999999
598.1999999999998,-0.048227
598.3999999999999,-0.0487489999999999
598.5999999999999,-0.0485549999999999
598.8,-0.0517639999999999
598.9999999999998,-0.0522389999999999
599.1999999999998,-0.0523199999999999
