Time (s),Shift (nm)
0.0,0.0
0.1999999999999886,0.001967
0.4000000000000341,-6.099999999986672e-05
0.6000000000000227,-0.0007839999999998
0.8000000000000114,-0.0007829999999999
1.0,-0.000558
1.1999999999999886,-0.0003779999999999
1.400000000000034,0.00143
1.6000000000000227,0.0047220000000001
1.8000000000000114,0.0060500000000001
2.0,0.0071039999999999
2.1999999999999886,0.008947
2.400000000000034,0.0108209999999999
2.6000000000000227,0.00977
2.800000000000012,0.008817
3.0,0.0095229999999999
3.1999999999999886,0.0076020000000001
3.400000000000034,0.0070859999999999
3.6000000000000227,0.008326
3.8000000000000114,0.010502
4.0,0.0110479999999999
4.199999999999989,0.012985
4.400000000000034,0.013975
4.600000000000023,0.0141660000000001
4.800000000000011,0.014877
5.0,0.014685
5.199999999999989,0.0138439999999999
5.400000000000034,0.011193
5.600000000000023,0.010747
5.800000000000011,0.0101809999999999
6.0,0.0114339999999999
6.199999999999989,0.012882
6.400000000000034,0.015962
6.600000000000023,0.016094
6.800000000000011,0.0171019999999999
7.0,0.0143740000000001
7.199999999999989,0.012407
7.400000000000034,0.0118880000000001
7.600000000000023,0.013579
7.800000000000011,0.0126699999999999
8.0,0.0152559999999999
8.199999999999989,0.0173130000000001
8.400000000000034,0.0177530000000001
8.600000000000023,0.014321
8.800000000000011,0.0117979999999999
9.0,0.008799
9.199999999999989,0.0080379999999999
9.400000000000034,0.0077709999999999
9.600000000000025,0.010893
9.800000000000011,0.0141169999999999
10.0,0.0174050000000001
10.199999999999989,0.0201139999999999
10.400000000000034,0.02113
10.600000000000025,0.0198659999999999
10.800000000000011,0.0193590000000001
11.0,0.017703
11.199999999999989,0.014658
11.400000000000034,0.0124900000000001
11.600000000000025,0.011695
11.800000000000011,0.0117420000000001
12.0,0.0118070000000001
12.199999999999989,0.0117260000000001
12.400000000000034,0.0120660000000001
12.600000000000025,0.013832
12.800000000000011,0.0141280000000001
13.0,0.015074
13.199999999999989,0.014501
13.400000000000034,0.014345
13.600000000000025,0.0133940000000001
13.800000000000011,0.013327
14.0,0.012423
14.199999999999989,0.012691
14.400000000000034,0.012853
14.600000000000025,0.0132240000000001
14.800000000000011,0.01208
15.0,0.010645
15.199999999999989,0.00983
15.400000000000034,0.0097530000000001
15.600000000000025,0.009138
15.800000000000011,0.0102850000000001
16.0,0.012113
16.19999999999999,0.0124280000000001
16.400000000000034,0.0122349999999999
16.600000000000023,0.012806
16.80000000000001,0.0129810000000001
17.0,0.012466
17.19999999999999,0.01217
17.400000000000034,0.0116789999999999
17.600000000000023,0.008669
17.80000000000001,0.0043870000000001
18.0,0.0028509999999999
18.19999999999999,0.0034
18.400000000000038,0.003538
18.600000000000023,0.0060109999999999
18.80000000000001,0.0096640000000001
19.0,0.0138770000000001
19.19999999999999,0.01679
19.400000000000038,0.0191780000000001
19.600000000000023,0.0208639999999999
19.80000000000001,0.0224740000000001
20.0,0.021471
20.19999999999999,0.019454
20.400000000000038,0.0176929999999999
20.600000000000023,0.0167889999999999
20.80000000000001,0.0166859999999999
21.0,0.0177519999999999
21.19999999999999,0.0178880000000001
21.400000000000038,0.0186140000000001
21.600000000000023,0.0179679999999999
21.80000000000001,0.0170339999999999
22.0,0.0140249999999999
22.19999999999999,0.0124219999999999
22.400000000000038,0.0095180000000001
22.600000000000023,0.008367
22.80000000000001,0.0063710000000001
23.0,0.006278
23.19999999999999,0.005835
23.400000000000038,0.0068099999999999
23.600000000000023,0.0073020000000001
23.80000000000001,0.008375
24.0,0.0093780000000001
24.19999999999999,0.0109300000000001
24.400000000000038,0.0116180000000001
24.600000000000023,0.0118439999999999
24.80000000000001,0.0111879999999999
25.0,0.0096910000000001
25.19999999999999,0.0086600000000001
25.400000000000038,0.007784
25.600000000000023,0.00644
25.80000000000001,0.005193
26.0,0.0055640000000001
26.19999999999999,0.006167
26.400000000000038,0.008385
26.600000000000023,0.010283
26.80000000000001,0.012885
27.0,0.013085
27.19999999999999,0.0146669999999999
27.400000000000038,0.014766
27.600000000000023,0.016137
27.80000000000001,0.0153160000000001
28.0,0.0148889999999999
28.19999999999999,0.0122580000000001
28.400000000000038,0.0094419999999999
28.600000000000023,0.006034
28.80000000000001,0.005362
29.0,0.0042649999999999
29.19999999999999,0.00231
29.400000000000038,0.000947
29.600000000000023,0.0006319999999999
29.80000000000001,0.0024459999999999
30.0,0.0043239999999999
30.19999999999999,0.0071019999999999
30.400000000000038,0.0088479999999999
30.600000000000023,0.0103790000000001
30.80000000000001,0.0094940000000001
31.0,0.011517
31.19999999999999,0.0137290000000001
31.400000000000038,0.0153499999999999
31.600000000000023,0.015579
31.80000000000001,0.013597
32.0,0.0100329999999999
32.19999999999999,0.0065209999999999
32.400000000000034,0.0058949999999999
32.60000000000002,0.0053020000000001
32.80000000000001,0.0087110000000001
33.0,0.0102839999999999
33.19999999999999,0.0111529999999999
33.400000000000034,0.0112179999999999
33.60000000000002,0.0128829999999999
33.80000000000001,0.0128399999999999
34.0,0.0144889999999999
34.19999999999999,0.01733
34.400000000000034,0.0187459999999999
34.60000000000002,0.019042
34.80000000000001,0.0178279999999999
35.0,0.0159489999999999
35.19999999999999,0.014364
35.400000000000034,0.0138340000000001
35.60000000000002,0.014474
35.80000000000001,0.0168619999999999
36.0,0.0202169999999999
36.19999999999999,0.022664
36.400000000000034,0.02336
36.60000000000002,0.020655
36.80000000000001,0.0177830000000001
37.0,0.0163280000000001
37.19999999999999,0.0150620000000001
37.400000000000034,0.0135910000000001
37.60000000000002,0.012885
37.80000000000001,0.0131700000000001
38.0,0.0124999999999999
38.19999999999999,0.012437
38.400000000000034,0.012243
38.60000000000002,0.012169
38.80000000000001,0.011611
39.0,0.0104139999999999
39.19999999999999,0.008863
39.400000000000034,0.0087829999999999
39.60000000000002,0.009524
39.80000000000001,0.0089259999999999
40.0,0.0075119999999999
40.19999999999999,0.009433
40.400000000000034,0.012277
40.60000000000002,0.012985
40.80000000000001,0.0134099999999999
41.0,0.015441
41.19999999999999,0.0126539999999999
41.400000000000034,0.0083010000000001
41.60000000000002,0.007095
41.80000000000001,0.0067159999999999
42.0,0.0058880000000001
42.19999999999999,0.006494
42.400000000000034,0.0102999999999999
42.60000000000002,0.012628
42.80000000000001,0.0136439999999999
43.0,0.0133050000000001
43.19999999999999,0.014259
43.400000000000034,0.012242
43.60000000000002,0.0099500000000001
43.80000000000001,0.008313
44.0,0.0097899999999999
44.19999999999999,0.010917
44.400000000000034,0.011999
44.60000000000002,0.0134609999999999
44.80000000000001,0.0152529999999999
45.0,0.015435
45.19999999999999,0.0147220000000001
45.400000000000034,0.0144219999999999
45.60000000000002,0.0140899999999999
45.80000000000001,0.0145759999999999
46.0,0.0136370000000001
46.19999999999999,0.012912
46.400000000000034,0.0135400000000001
46.60000000000002,0.0155899999999999
46.80000000000001,0.01648
47.0,0.0155959999999999
47.19999999999999,0.015411
47.400000000000034,0.014753
47.60000000000002,0.0125319999999999
47.80000000000001,0.010718
48.0,0.0127030000000001
48.19999999999999,0.015595
48.400000000000034,0.016942
48.60000000000002,0.018262
48.80000000000001,0.018175
49.0,0.017071
49.19999999999999,0.014888
49.400000000000034,0.0130749999999999
49.60000000000002,0.0107920000000001
49.80000000000001,0.008636
50.0,0.008086
50.19999999999999,0.0074320000000001
50.400000000000034,0.007638
50.60000000000002,0.0082949999999999
50.80000000000001,0.0108939999999999
51.0,0.0126129999999999
51.19999999999999,0.014251
51.400000000000034,0.0152289999999999
51.60000000000002,0.014604
51.80000000000001,0.0120359999999999
52.0,0.0092590000000001
52.19999999999999,0.0072080000000001
52.400000000000034,0.007168
52.60000000000002,0.008474
52.80000000000001,0.011649
53.0,0.0121599999999999
53.19999999999999,0.011076
53.400000000000034,0.0064630000000001
53.60000000000002,0.0033560000000001
53.80000000000001,0.0007349999999999
54.0,0.000439
54.19999999999999,0.0011449999999999
54.400000000000034,0.003384
54.60000000000002,0.006348
54.80000000000001,0.008888
55.0,0.010461
55.19999999999999,0.011071
55.400000000000034,0.0115629999999999
55.60000000000002,0.012113
55.80000000000001,0.0107539999999999
56.0,0.009873
56.19999999999999,0.007476
56.400000000000034,0.006666
56.60000000000002,0.005902
56.80000000000001,0.0072419999999999
57.0,0.0081930000000001
57.19999999999999,0.0111890000000001
57.400000000000034,0.013449
57.60000000000002,0.014253
57.80000000000001,0.0135720000000001
58.0,0.014477
58.19999999999999,0.0144489999999999
58.400000000000034,0.012734
58.60000000000002,0.009757
58.80000000000001,0.0102649999999999
59.0,0.0100649999999999
59.19999999999999,0.0108570000000001
59.400000000000034,0.0128140000000001
59.60000000000002,0.0170380000000001
59.80000000000001,0.017392
60.0,0.0167250000000001
60.19999999999999,0.0148570000000001
60.400000000000034,0.012302
60.60000000000002,0.0083280000000001
60.80000000000001,0.005951
61.0,0.005746
61.19999999999999,0.0066619999999999
61.400000000000034,0.0081809999999999
61.60000000000002,0.0097530000000001
61.80000000000001,0.0122550000000001
62.00000000000006,0.013851
62.19999999999999,0.014955
62.400000000000034,0.015514
62.599999999999966,0.015956
62.80000000000001,0.0154909999999999
63.00000000000006,0.0132369999999999
63.19999999999999,0.0096819999999999
63.400000000000034,0.0076199999999999
63.599999999999966,0.0072130000000001
63.80000000000001,0.0059580000000001
64.00000000000006,0.005408
64.19999999999999,0.007913
64.40000000000003,0.0096880000000001
64.59999999999997,0.010858
64.80000000000001,0.012097
65.00000000000006,0.013416
65.19999999999999,0.011905
65.40000000000003,0.0093069999999999
65.59999999999997,0.008007
65.80000000000001,0.0068719999999999
66.00000000000006,0.0056549999999999
66.19999999999999,0.0069540000000001
66.40000000000003,0.0106410000000001
66.59999999999997,0.0110920000000001
66.80000000000001,0.0123980000000001
67.00000000000006,0.0131540000000001
67.19999999999999,0.012105
67.40000000000003,0.0082900000000001
67.59999999999997,0.0078249999999999
67.80000000000001,0.00638
68.00000000000006,0.0076309999999999
68.19999999999999,0.0096180000000001
68.40000000000003,0.0120299999999999
68.59999999999997,0.010448
68.80000000000001,0.0087859999999999
69.00000000000006,0.0051350000000001
69.19999999999999,0.000623
69.40000000000003,-0.0009349999999999
69.59999999999997,0.000623
69.80000000000001,0.0054879999999999
70.00000000000006,0.010669
70.19999999999999,0.0145870000000001
70.40000000000003,0.0145539999999999
70.59999999999997,0.013384
70.80000000000001,0.009756
71.00000000000006,0.005119
71.19999999999999,0.0050460000000001
71.40000000000003,0.008688
71.59999999999997,0.0122649999999999
71.80000000000001,0.0136169999999999
72.00000000000006,0.014696
72.19999999999999,0.0151700000000001
72.40000000000003,0.0129399999999999
72.59999999999997,0.010175
72.80000000000001,0.0086760000000001
73.00000000000006,0.0080459999999999
73.19999999999999,0.007457
73.40000000000003,0.00617
73.59999999999997,0.005333
73.80000000000001,0.003487
74.00000000000006,0.0038580000000001
74.19999999999999,0.0032039999999999
74.40000000000003,0.004115
74.59999999999997,0.004539
74.80000000000001,0.006653
75.00000000000006,0.0059839999999999
75.19999999999999,0.0056579999999999
75.40000000000003,0.0051700000000001
75.59999999999997,0.0062329999999999
75.80000000000001,0.006747
76.00000000000006,0.007803
76.19999999999999,0.0071890000000001
76.40000000000003,0.006223
76.59999999999997,0.0045220000000001
76.80000000000001,0.004466
77.00000000000006,0.0045140000000001
77.19999999999999,0.004955
77.40000000000003,0.005662
77.59999999999997,0.0059549999999999
77.80000000000001,0.0056929999999999
78.00000000000006,0.0059949999999999
78.19999999999999,0.0051879999999999
78.40000000000003,0.006312
78.59999999999997,0.007889
78.80000000000001,0.008917
79.00000000000006,0.010963
79.19999999999999,0.013935
79.40000000000003,0.0141500000000001
79.59999999999997,0.013217
79.80000000000001,0.0110380000000001
80.00000000000006,0.0087559999999999
80.19999999999999,0.009157
80.40000000000003,0.0107809999999999
80.59999999999997,0.012521
80.80000000000001,0.0138249999999999
81.00000000000006,0.0131430000000001
81.19999999999999,0.0088079999999999
81.40000000000003,0.004715
81.59999999999997,0.002107
81.80000000000001,0.0007920000000001
82.00000000000006,-0.0003329999999999
82.19999999999999,0.0005779999999999
82.40000000000003,0.000545
82.59999999999997,0.0021850000000001
82.80000000000001,0.004197
83.00000000000006,0.0052989999999999
83.19999999999999,0.005962
83.40000000000003,0.007695
83.59999999999997,0.0072639999999999
83.80000000000001,0.004504
84.00000000000006,0.0025790000000001
84.19999999999999,0.0012039999999999
84.40000000000003,0.0002329999999999
84.59999999999997,0.0002170000000001
84.80000000000001,0.0019960000000001
85.00000000000006,0.004666
85.19999999999999,0.0066189999999999
85.40000000000003,0.006664
85.59999999999997,0.006993
85.80000000000001,0.0073469999999999
86.00000000000006,0.006774
86.19999999999999,0.0051229999999999
86.40000000000003,0.0054560000000001
86.59999999999997,0.0045209999999999
86.80000000000001,0.004204
87.00000000000006,0.0047779999999999
87.19999999999999,0.008027
87.40000000000003,0.008385
87.59999999999997,0.0095750000000001
87.80000000000001,0.0098770000000001
88.00000000000006,0.0100359999999999
88.19999999999999,0.007335
88.40000000000003,0.0081470000000001
88.59999999999997,0.0098659999999999
88.80000000000001,0.0127760000000001
89.00000000000006,0.0139310000000001
89.19999999999999,0.0152000000000001
89.40000000000003,0.0130350000000001
89.59999999999997,0.009424
89.80000000000001,0.005824
90.00000000000006,0.0042159999999999
90.2,0.0050529999999999
90.40000000000003,0.007835
90.59999999999997,0.009848
90.8,0.0116530000000001
91.00000000000006,0.0128399999999999
91.2,0.0130650000000001
91.40000000000003,0.012267
91.59999999999997,0.0121850000000001
91.8,0.0125649999999999
92.00000000000006,0.014051
92.2,0.014575
92.40000000000003,0.0129829999999999
92.59999999999997,0.0115940000000001
92.8,0.0106269999999999
93.00000000000006,0.0098409999999999
93.2,0.009287
93.40000000000003,0.0113130000000001
93.59999999999997,0.0135560000000001
93.8,0.0137789999999999
94.00000000000006,0.0125189999999999
94.2,0.0111179999999999
94.40000000000003,0.0091129999999999
94.59999999999997,0.0081029999999999
94.8,0.006493
95.00000000000006,0.006391
95.2,0.0066790000000001
95.40000000000003,0.008985
95.59999999999997,0.007357
95.8,0.0052829999999999
96.00000000000006,0.0021709999999999
96.2,0.0001599999999999
96.40000000000003,-0.0015479999999998
96.59999999999997,-0.001174
96.8,0.0010959999999999
97.00000000000006,0.004858
97.2,0.007738
97.40000000000003,0.0107600000000001
97.59999999999997,0.0131939999999999
97.8,0.01377
98.00000000000006,0.0130049999999999
98.2,0.0110540000000001
98.40000000000003,0.007894
98.59999999999997,0.0063239999999999
98.8,0.007756
99.00000000000006,0.008186
99.2,0.0075990000000001
99.40000000000003,0.0071289999999999
99.59999999999997,0.0052700000000001
99.8,0.0039839999999999
100.00000000000006,0.004242
100.2,0.007417
100.40000000000003,0.00733
100.59999999999997,0.0077070000000001
100.8,0.0050369999999999
101.00000000000006,0.001341
101.2,-0.0007189999999999
101.40000000000003,0.0006490000000001
101.59999999999997,0.002043
101.8,0.0043299999999999
102.00000000000006,0.0081269999999999
102.2,0.009638
102.40000000000003,0.010159
102.59999999999997,0.010609
102.8,0.010321
103.00000000000006,0.009457
103.2,0.0062170000000001
103.40000000000003,0.0038690000000001
103.59999999999997,0.0032700000000001
103.8,0.0042519999999999
104.00000000000006,0.0043010000000001
104.2,0.006526
104.40000000000003,0.008704
104.59999999999997,0.0092829999999999
104.8,0.0089099999999999
105.00000000000006,0.006844
105.2,0.005481
105.40000000000003,0.0030190000000001
105.59999999999997,8.500000000011276e-05
105.8,-0.0027679999999998
106.00000000000006,-0.0018169999999999
106.2,-0.0018629999999999
106.40000000000003,-0.0006189999999999
106.59999999999997,0.0017359999999999
106.8,0.0028289999999999
107.00000000000006,0.0025410000000001
107.2,0.0023779999999999
107.40000000000003,0.001986
107.59999999999997,0.0003949999999999
107.8,0.0007179999999999
108.00000000000006,0.0019390000000001
108.2,0.0048019999999999
108.40000000000003,0.0089289999999999
108.59999999999997,0.0133160000000001
108.8,0.0149399999999999
109.00000000000006,0.014925
109.2,0.01255
109.40000000000003,0.009357
109.59999999999997,0.007832
109.8,0.0088380000000001
110.00000000000006,0.008302
110.2,0.0078039999999999
110.40000000000003,0.0063239999999999
110.59999999999997,0.004359
110.8,0.002177
111.00000000000006,0.0008159999999999
111.2,0.000583
111.40000000000003,0.0022390000000001
111.59999999999997,0.0054339999999999
111.8,0.009441
112.00000000000006,0.0131149999999999
112.2,0.0148129999999999
112.40000000000003,0.012097
112.59999999999997,0.0097009999999999
112.8,0.0068270000000001
113.00000000000006,0.006226
113.2,0.005343
113.40000000000003,0.006434
113.59999999999997,0.004763
113.8,0.0036659999999999
114.00000000000006,0.0020299999999999
114.2,0.0032019999999999
114.40000000000003,0.0048429999999999
114.59999999999997,0.0054179999999999
114.8,0.0055260000000001
115.00000000000006,0.0069810000000001
115.2,0.006431
115.40000000000003,0.0047989999999999
115.59999999999997,0.0047289999999999
115.8,0.003684
116.00000000000006,0.0010350000000001
116.2,6.4000000000064e-05
116.40000000000003,0.0011929999999999
116.59999999999997,0.003533
116.8,0.004958
117.00000000000006,0.0055579999999999
117.2,0.0051849999999999
117.40000000000003,0.0043600000000001
117.59999999999997,0.001953
117.8,0.002734
118.00000000000006,0.005778
118.2,0.010548
118.40000000000003,0.0149209999999999
118.59999999999997,0.0181459999999999
118.8,0.0186950000000001
119.00000000000006,0.017759
119.2,0.0151719999999999
119.40000000000003,0.011975
119.59999999999997,0.008752
119.8,0.007125
120.00000000000006,0.005487
120.2,0.003665
120.40000000000003,0.0014469999999999
120.59999999999997,0.000669
120.8,-0.000966
121.00000000000006,-0.0026679999999998
121.2,-0.003943
121.40000000000003,-0.003997
121.59999999999997,-0.0050779999999999
121.8,-0.005012
122.00000000000006,-0.0050909999999999
122.2,-0.004132
122.40000000000003,-0.0027809999999999
122.59999999999997,0.0006539999999999
122.8,0.0046840000000001
123.00000000000006,0.0077880000000001
123.2,0.006995
123.40000000000003,0.0057899999999999
123.59999999999997,0.0039629999999999
123.8,0.0013119999999999
124.00000000000006,-0.0011209999999999
124.2,-0.0009079999999999
124.40000000000003,-0.0008729999999999
124.59999999999997,-0.000699
124.8,-0.000202
125.00000000000006,0.001316
125.2,0.0025509999999999
125.40000000000003,0.003576
125.59999999999997,0.0026619999999999
125.8,0.002042
126.00000000000006,0.002075
126.2,0.001708
126.40000000000003,0.0006969999999999
126.59999999999997,0.002833
126.8,0.002812
127.00000000000006,0.001074
127.2,-0.0008559999999999
127.40000000000003,0.0001219999999999
127.59999999999997,0.0013959999999999
127.8,0.0035039999999999
128.00000000000006,0.0059120000000001
128.2,0.0080200000000001
128.40000000000003,0.0084550000000001
128.59999999999997,0.006234
128.8,0.0049289999999999
129.00000000000006,0.0032780000000001
129.2,0.000909
129.40000000000003,-0.0016399999999998
129.59999999999997,-0.000796
129.8,-0.001384
130.00000000000006,-0.001233
130.2,0.0019759999999999
130.40000000000003,0.0051229999999999
130.59999999999997,0.0064060000000001
130.8,0.0077720000000001
131.00000000000006,0.010528
131.2,0.0131229999999999
131.40000000000003,0.014073
131.59999999999997,0.01339
131.8,0.0140059999999999
132.00000000000006,0.0128920000000001
132.2,0.0104459999999999
132.40000000000003,0.0095659999999999
132.59999999999997,0.0075009999999999
132.8,0.004868
133.00000000000006,0.002474
133.2,0.0025950000000001
133.40000000000003,0.0030099999999999
133.59999999999997,0.0047380000000001
133.8,0.006761
134.00000000000006,0.008285
134.2,0.006674
134.40000000000003,0.0057640000000001
134.59999999999997,0.005174
134.8,0.0047730000000001
135.00000000000006,0.0037979999999999
135.2,0.0042299999999999
135.40000000000003,0.001924
135.59999999999997,0.0013039999999999
135.8,-0.0003089999999998
136.00000000000006,0.000558
136.2,-0.000178
136.40000000000003,0.0018389999999999
136.59999999999997,0.0023509999999999
136.8,0.003918
137.00000000000006,0.004256
137.2,0.0061219999999999
137.40000000000003,0.004196
137.59999999999997,0.002685
137.8,0.0012659999999999
138.00000000000006,0.0018679999999999
138.2,0.002634
138.40000000000003,0.005452
138.59999999999997,0.00638
138.8,0.0058040000000001
139.00000000000006,0.003039
139.2,0.0008110000000001
139.40000000000003,0.0015309999999999
139.59999999999997,0.002591
139.8,0.00279
140.00000000000006,0.0036720000000001
140.2,0.003854
140.40000000000003,0.0008699999999999
140.59999999999997,-0.000928
140.8,-0.0014339999999999
141.00000000000006,-0.0011909999999999
141.2,-0.00078
141.40000000000003,0.0010270000000001
141.59999999999997,0.0018230000000001
141.8,0.0029270000000001
142.00000000000006,0.003424
142.2,0.003163
142.40000000000003,0.0026049999999999
142.59999999999997,0.001562
142.8,0.000628
143.00000000000006,0.0005079999999999
143.2,3.700000000006476e-05
143.40000000000003,9.700000000001374e-05
143.59999999999997,0.0012579999999999
143.8,0.0022740000000001
144.00000000000006,0.000555
144.2,-0.000402
144.40000000000003,-0.0010079999999998
144.59999999999997,-0.001503
144.8,-0.0016059999999999
145.00000000000006,-0.0008429999999999
145.2,0.000275
145.40000000000003,-0.0001379999999999
145.59999999999997,-0.000442
145.8,-0.0003589999999999
146.00000000000006,0.0009449999999999
146.2,0.0019770000000001
146.40000000000003,0.0031609999999999
146.59999999999997,0.005227
146.8,0.006804
147.00000000000006,0.007138
147.2,0.006771
147.40000000000003,0.0062159999999999
147.59999999999997,0.003657
147.8,-7.2000000000072e-05
148.00000000000006,-0.0036529999999999
148.2,-0.0057769999999999
148.40000000000003,-0.0069879999999999
148.59999999999997,-0.0068989999999999
148.8,-0.006445
149.00000000000006,-0.0042869999999999
149.2,-0.0020069999999998
149.40000000000003,-0.0004199999999998
149.59999999999997,0.0003809999999999
149.8,0.0016169999999999
150.00000000000006,0.0025539999999999
150.2,0.0018420000000001
150.40000000000003,0.0014689999999999
150.59999999999997,0.0027289999999999
150.8,0.004718
151.00000000000006,0.0063759999999999
151.2,0.008296
151.40000000000003,0.0097100000000001
151.59999999999997,0.010089
151.8,0.0092149999999999
152.00000000000006,0.006717
152.2,0.0039679999999999
152.40000000000003,0.0019569999999999
152.59999999999997,0.001273
152.8,-0.0010459999999998
153.00000000000006,-0.0026939999999999
153.2,-0.003041
153.40000000000003,-0.0025219999999999
153.59999999999997,-0.0043219999999999
153.8,-0.0038419999999999
154.00000000000006,-0.001781
154.2,0.001084
154.40000000000003,0.001897
154.59999999999997,0.002364
154.8,0.0021059999999999
155.00000000000006,0.0016610000000001
155.2,-0.000709
155.40000000000003,-0.0015589999999998
155.59999999999997,-0.001727
155.8,-0.0017409999999999
156.00000000000006,-0.0027889999999999
156.2,-0.0009559999999999
156.40000000000003,0.0016830000000001
156.59999999999997,0.0029829999999999
156.8,0.003784
157.00000000000006,0.0043440000000001
157.2,0.0032480000000001
157.40000000000003,0.001468
157.59999999999997,0.0020470000000001
157.8,0.0030780000000001
158.00000000000006,0.0049909999999999
158.2,0.00767
158.40000000000003,0.009495
158.59999999999997,0.0108190000000001
158.8,0.0118089999999999
159.00000000000006,0.0130890000000001
159.2,0.0117150000000001
159.40000000000003,0.0106220000000001
159.59999999999997,0.0086289999999999
159.8,0.0075389999999999
160.00000000000006,0.0056849999999999
160.2,0.0047209999999999
160.40000000000003,0.003954
160.59999999999997,0.0019599999999999
160.8,0.0004759999999999
161.00000000000006,-0.0016819999999999
161.2,-0.001964
161.40000000000003,-0.001767
161.59999999999997,0.0009259999999999
161.8,0.0036789999999999
162.00000000000006,0.0067809999999999
162.2,0.009641
162.40000000000003,0.010304
162.59999999999997,0.008639
162.8,0.0047989999999999
163.00000000000006,0.00123
163.2,-0.0040299999999999
163.40000000000003,-0.0057369999999998
163.59999999999997,-0.0054969999999998
163.8,-0.0033289999999999
164.00000000000006,-0.0008399999999999
164.2,0.001079
164.40000000000003,0.0014259999999999
164.59999999999997,0.000731
164.8,0.000223
165.00000000000006,0.0008190000000001
165.2,0.002264
165.40000000000003,0.0030339999999999
165.59999999999997,0.003919
165.8,0.0030289999999999
166.00000000000006,-0.0016199999999999
166.2,-0.0066109999999999
166.40000000000003,-0.0088249999999998
166.59999999999997,-0.008726
166.8,-0.005533
167.00000000000006,-0.0007429999999999
167.2,0.0038929999999999
167.40000000000003,0.0045649999999999
167.59999999999997,0.0034579999999999
167.8,0.0012719999999999
168.00000000000006,0.0003550000000001
168.2,-0.001595
168.40000000000003,-0.0014859999999998
168.59999999999997,-0.0015279999999999
168.8,-0.001751
169.00000000000006,-0.0038179999999998
169.2,-0.0035279999999999
169.40000000000003,-0.0015449999999999
169.59999999999997,0.0011350000000001
169.8,0.002016
170.00000000000006,0.0029909999999999
170.2,0.0048179999999999
170.40000000000003,0.0041820000000001
170.59999999999997,0.0043139999999999
170.8,0.0041470000000001
171.00000000000006,0.005101
171.2,0.0046950000000001
171.40000000000003,0.004205
171.59999999999997,0.0020329999999999
171.8,0.0016499999999999
172.00000000000006,0.002072
172.2,0.002374
172.40000000000003,0.001854
172.59999999999997,0.0027829999999999
172.8,0.003416
173.00000000000006,0.00286
173.2,0.0011000000000001
173.40000000000003,0.000596
173.59999999999997,-0.0012969999999998
173.8,-0.0025109999999999
174.00000000000006,-0.0032799999999999
174.2,-0.0016979999999999
174.40000000000003,-0.000645
174.59999999999997,9.300000000012076e-05
174.8,-0.0015369999999998
175.00000000000006,-0.001093
175.2,-0.0008459999999999
175.40000000000003,0.000115
175.59999999999997,0.0024029999999999
175.8,0.006809
176.00000000000006,0.007997
176.2,0.006842
176.40000000000003,0.0041660000000001
176.59999999999997,0.001109
176.8,-0.0024699999999999
177.00000000000006,-0.004893
177.2,-0.005282
177.40000000000003,-0.005306
177.59999999999997,-0.00621
177.8,-0.0078369999999998
178.00000000000006,-0.0089609999999999
178.2,-0.009392
178.40000000000003,-0.0105509999999999
178.59999999999997,-0.0092319999999999
178.8,-0.0046489999999999
179.00000000000006,-0.000472
179.2,0.0019709999999999
179.40000000000003,0.0036659999999999
179.59999999999997,0.0043029999999999
179.8,0.002588
180.00000000000006,0.002056
180.2,0.0018580000000001
180.40000000000003,0.0024790000000001
180.6,0.002267
180.8,0.0018409999999999
181.00000000000009,0.000639
181.2,0.00119
181.40000000000003,0.00363
181.6,0.0044999999999999
181.8,0.0052179999999999
182.00000000000009,0.0029069999999999
182.2,0.000679
182.40000000000003,-0.001554
182.6,-0.001068
182.8,-0.0008839999999998
183.00000000000009,0.0021999999999999
183.2,0.004205
183.40000000000003,0.003624
183.6,0.00153
183.8,0.0010589999999999
184.00000000000009,0.0007719999999999
184.2,3.900000000012227e-05
184.40000000000003,0.001441
184.6,0.003004
184.8,0.002445
185.00000000000009,0.0015279999999999
185.2,-0.00014
185.40000000000003,-0.0020339999999998
185.6,-0.0027729999999999
185.8,-0.0017259999999998
186.00000000000009,-0.0018879999999998
186.2,0.0001759999999999
186.40000000000003,0.003157
186.6,0.0047269999999999
186.8,0.0034579999999999
187.00000000000009,0.0031959999999999
187.2,0.000712
187.40000000000003,-0.0007699999999999
187.6,-0.0022489999999999
187.8,-0.001001
188.00000000000009,0.000599
188.2,0.0024349999999999
188.40000000000003,0.0019139999999999
188.6,0.0023349999999999
188.8,0.002974
189.00000000000009,0.0036020000000001
189.2,0.004698
189.40000000000003,0.0053199999999999
189.6,0.0052700000000001
189.8,0.003627
190.00000000000009,0.001897
190.2,-0.0006089999999998
190.40000000000003,-0.0014499999999999
190.6,-0.0021819999999999
190.8,-0.001546
191.00000000000009,-5.799999999989147e-05
191.2,0.0009509999999999
191.40000000000003,0.0005079999999999
191.6,0.0005459999999999
191.8,-0.000421
192.00000000000009,-0.000955
192.2,-0.0009909999999999
192.40000000000003,-0.0010719999999999
192.6,-0.002299
192.8,-0.0028639999999999
193.00000000000009,-0.0029809999999999
193.2,-0.003093
193.40000000000003,-0.003354
193.6,-0.001835
193.8,0.0007159999999999
194.00000000000009,0.0008000000000001
194.2,-0.001414
194.40000000000003,-0.0015039999999999
194.6,-0.0009719999999999
194.8,-0.0001379999999999
195.00000000000009,-0.000971
195.2,0.000172
195.40000000000003,0.0027380000000001
195.6,0.004474
195.8,0.0039059999999999
196.00000000000009,0.002569
196.2,0.00269
196.40000000000003,0.001055
196.6,-0.0004049999999999
196.8,-0.0011479999999999
197.00000000000009,-0.0007649999999999
197.2,-0.001703
197.40000000000003,-0.0030559999999999
197.6,-0.0049269999999999
197.8,-0.005819
198.00000000000009,-0.00373
198.2,-0.0013229999999999
198.40000000000003,0.0016469999999999
198.6,0.0030069999999999
198.8,0.0025870000000001
199.00000000000009,9.1999999999981e-05
199.2,-0.0006939999999999
199.40000000000003,-0.0022439999999999
199.6,-0.0029129999999999
199.8,-0.0021269999999999
200.00000000000009,-0.0002919999999999
200.2,0.0008639999999999
200.40000000000003,0.0027449999999999
200.6,0.005206
200.8,0.0074320000000001
201.00000000000009,0.00791
201.2,0.0058789999999999
201.40000000000003,0.0027049999999999
201.6,-0.00058
201.8,-0.002472
202.00000000000009,-0.003821
202.2,-0.0026379999999999
202.40000000000003,-0.0017599999999999
202.6,-0.0010569999999998
202.8,-0.002556
203.00000000000009,-0.0023329999999999
203.2,-0.0022549999999998
203.40000000000003,-0.0018709999999999
203.6,-0.0004629999999998
203.8,0.0002949999999999
204.00000000000009,0.000229
204.2,-0.002483
204.40000000000003,-0.0040139999999999
204.6,-0.004426
204.8,-0.003997
205.00000000000009,-0.003727
205.2,-0.002688
205.40000000000003,-0.000542
205.6,-0.001622
205.8,-0.0027989999999999
206.00000000000009,-0.0058249999999999
206.2,-0.00675
206.40000000000003,-0.0091649999999998
206.6,-0.009217
206.8,-0.0086889999999999
207.00000000000009,-0.003973
207.2,-0.0007289999999999
207.40000000000003,0.001001
207.6,0.0008080000000001
207.8,0.002069
208.00000000000009,-0.0001599999999999
208.2,-0.0020359999999999
208.40000000000003,-0.0025939999999999
208.6,-9.799999999993148e-05
208.8,7.00000000000145e-05
209.00000000000009,0.0015640000000001
209.2,0.0032259999999999
209.40000000000003,0.004499
209.6,0.0041040000000001
209.8,0.0037690000000001
210.00000000000009,0.0037279999999999
210.2,0.00289
210.40000000000003,0.0023029999999999
210.6,0.00076
210.8,-9.299999999989872e-05
211.00000000000009,-0.001757
211.2,-0.002777
211.40000000000003,-0.005125
211.6,-0.0054939999999998
211.8,-0.0061109999999999
212.00000000000009,-0.0063109999999999
212.2,-0.005122
212.40000000000003,-0.0029649999999998
212.6,-0.003325
212.8,-0.003929
213.00000000000009,-0.002518
213.2,-0.0021139999999999
213.40000000000003,-0.0029139999999998
213.6,-0.004237
213.8,-0.0034119999999999
214.00000000000009,-0.00635
214.2,-0.0087379999999999
214.40000000000003,-0.0100109999999999
214.6,-0.0084899999999998
214.8,-0.009433
215.00000000000009,-0.0074829999999999
215.2,-0.006485
215.40000000000003,-0.004807
215.6,-0.0048099999999999
215.8,-0.0015479999999998
216.00000000000009,0.001165
216.2,0.002966
216.40000000000003,0.0025299999999999
216.6,0.003867
216.8,0.0010540000000001
217.00000000000009,-0.0023709999999999
217.2,-0.0041569999999999
217.40000000000003,-0.002796
217.6,-0.0023979999999999
217.8,-0.0022839999999999
218.00000000000009,-0.0034399999999998
218.2,-0.005638
218.40000000000003,-0.008086
218.6,-0.009811
218.8,-0.008183
219.00000000000009,-0.0051889999999998
219.2,-0.002291
219.40000000000003,0.000609
219.6,0.0032039999999999
219.8,0.0030620000000001
220.00000000000009,0.0028289999999999
220.2,0.0017659999999999
220.40000000000003,-0.0006439999999998
220.6,-0.003946
220.8,-0.0056039999999999
221.00000000000009,-0.0065129999999999
221.2,-0.006985
221.40000000000003,-0.0053319999999998
221.6,-0.0041789999999999
221.8,-0.0029369999999999
222.00000000000009,-0.0037989999999998
222.2,-0.004002
222.40000000000003,-0.004035
222.6,-0.0047719999999999
222.8,-0.006032
223.00000000000009,-0.0075339999999999
223.2,-0.0079499999999999
223.40000000000003,-0.011025
223.6,-0.0122759999999999
223.8,-0.0111129999999999
224.00000000000009,-0.0074349999999998
224.2,-0.0045819999999998
224.40000000000003,-0.0019179999999998
224.6,-0.000488
224.8,-0.002
225.00000000000009,-0.0045029999999999
225.2,-0.006326
225.40000000000003,-0.0088949999999998
225.6,-0.009117
225.8,-0.0090459999999998
226.00000000000009,-0.00984
226.2,-0.010472
226.40000000000003,-0.0083079999999999
226.6,-0.0069799999999999
226.8,-0.0060219999999999
227.00000000000009,-0.0062489999999999
227.2,-0.0070269999999998
227.40000000000003,-0.0088429999999999
227.6,-0.009106
227.8,-0.0074279999999999
228.00000000000009,-0.0023029999999999
228.2,0.0036469999999999
228.40000000000003,0.0098659999999999
228.6,0.0137830000000001
228.8,0.0143329999999999
229.00000000000009,0.012569
229.2,0.009182
229.40000000000003,0.005708
229.6,0.0021090000000001
229.8,-0.0005379999999999
230.00000000000009,-0.001816
230.2,-0.0029369999999999
230.40000000000003,-0.0057439999999999
230.6,-0.008874
230.8,-0.0102459999999999
231.00000000000009,-0.010801
231.2,-0.0106009999999998
231.40000000000003,-0.009635
231.6,-0.0071989999999999
231.8,-0.0052179999999999
232.00000000000009,-0.005757
232.2,-0.0064779999999999
232.40000000000003,-0.005846
232.6,-0.005122
232.8,-0.003792
233.00000000000009,-0.000561
233.2,0.001092
233.40000000000003,0.0004060000000001
233.6,-0.0010449999999999
233.8,-0.0022249999999999
234.00000000000009,-0.0047439999999998
234.2,-0.0065109999999999
234.40000000000003,-0.0089369999999999
234.6,-0.010772
234.8,-0.0125739999999998
235.00000000000009,-0.013325
235.2,-0.014853
235.40000000000003,-0.0133559999999999
235.6,-0.010901
235.8,-0.007954
236.00000000000009,-0.0053069999999999
236.2,-0.0016399999999998
236.40000000000003,0.001908
236.6,0.001989
236.8,0.000102
237.00000000000009,-0.0019609999999998
237.2,-0.004618
237.40000000000003,-0.007946
237.6,-0.0105649999999999
237.8,-0.010383
238.00000000000009,-0.0101519999999999
238.2,-0.007616
238.40000000000003,-0.0058419999999999
238.6,-0.0031859999999999
238.8,-0.0035719999999999
239.00000000000009,-0.0028939999999999
239.2,-0.0037059999999999
239.40000000000003,-0.0029529999999999
239.6,-0.0024819999999998
239.8,-0.001101
240.00000000000009,-0.001128
240.2,2.9999999999752447e-06
240.40000000000003,-0.000917
240.6,-0.002094
240.8,-0.0036659999999999
241.00000000000009,-0.004175
241.2,-0.0073909999999999
241.40000000000003,-0.0092859999999999
241.6,-0.009031
241.8,-0.007338
242.00000000000009,-0.005338
242.2,-0.002391
242.40000000000003,-0.0008619999999999
242.6,-0.0005139999999999
242.8,-0.00139
243.00000000000009,-0.0027999999999999
243.2,-0.0026869999999998
243.40000000000003,-0.0009269999999999
243.6,0.0008570000000001
243.8,0.003424
244.00000000000009,0.0034609999999999
244.2,0.0019690000000001
244.40000000000003,-0.000402
244.6,-0.0029219999999998
244.8,-0.0047209999999999
245.00000000000009,-0.0034689999999999
245.2,-0.0005139999999999
245.40000000000003,0.001878
245.6,0.0044029999999999
245.8,0.0042980000000001
246.00000000000009,0.0031540000000001
246.2,-4.000000000004e-05
246.40000000000003,-0.0020789999999999
246.6,-0.004809
246.8,-0.0070749999999999
247.00000000000009,-0.00831
247.2,-0.0077359999999999
247.40000000000003,-0.008982
247.6,-0.0089909999999999
247.8,-0.008175
248.00000000000009,-0.0067299999999999
248.2,-0.0056769999999999
248.40000000000003,-0.003465
248.6,-0.0019689999999998
248.8,-0.002429
249.00000000000009,-0.003368
249.2,-0.0039979999999999
249.40000000000003,-0.0044299999999999
249.6,-0.0052909999999999
249.8,-0.005279
250.00000000000009,-0.0047909999999999
250.2,-0.0039449999999998
250.40000000000003,-0.0043869999999999
250.6,-0.004858
250.8,-0.0033149999999999
251.00000000000009,-0.0032939999999999
251.2,-0.0058279999999999
251.40000000000003,-0.00679
251.6,-0.007006
251.8,-0.008205
252.00000000000009,-0.0079739999999999
252.2,-0.0071049999999999
252.40000000000003,-0.0069529999999999
252.6,-0.00824
252.8,-0.0112989999999999
253.00000000000009,-0.0134659999999999
253.2,-0.0109889999999999
253.40000000000003,-0.0077499999999999
253.6,-0.004523
253.8,-0.001665
254.00000000000009,-0.0005349999999999
254.2,-0.0020819999999999
254.40000000000003,-0.0031149999999999
254.6,-0.003862
254.8,-0.0024429999999999
255.00000000000009,-0.0017259999999998
255.2,-0.0008699999999999
255.40000000000003,-7.699999999988272e-05
255.6,0.0016070000000001
255.8,0.002426
256.00000000000006,0.002563
256.2,-0.0002169999999999
256.40000000000003,-0.0020279999999999
256.6,-0.003492
256.8,-0.006386
257.00000000000006,-0.0083199999999998
257.2,-0.007303
257.40000000000003,-0.006472
257.6,-0.005608
257.8,-0.0021409999999999
258.00000000000006,0.000448
258.2,0.001524
258.40000000000003,0.0004839999999999
258.6,-0.0002199999999998
258.8,-0.003311
259.00000000000006,-0.0051769999999999
259.2,-0.0070509999999999
259.40000000000003,-0.0077329999999999
259.6,-0.009606
259.8,-0.008523
260.00000000000006,-0.006423
260.2,-0.0030559999999999
260.40000000000003,-0.0013309999999999
260.6,-0.000129
260.8,-0.0013719999999999
261.00000000000006,-0.0033449999999999
261.2,-0.007287
261.40000000000003,-0.0100989999999998
261.6,-0.0116
261.8,-0.0096989999999999
262.00000000000006,-0.0084409999999999
262.2,-0.007557
262.40000000000003,-0.00668
262.6,-0.0041419999999998
262.8,-0.0035369999999999
263.00000000000006,-0.003835
263.2,-0.0022089999999999
263.40000000000003,-0.000831
263.6,-0.0021269999999999
263.8,-0.0044249999999999
264.00000000000006,-0.005023
264.2,-0.0056639999999998
264.40000000000003,-0.006507
264.6,-0.0067249999999998
264.8,-0.0049969999999999
265.00000000000006,-0.0040329999999999
265.2,-0.0018559999999998
265.40000000000003,4.899999999996574e-05
265.6,0.0012289999999999
265.8,-0.000364
266.00000000000006,-0.0041139999999999
266.2,-0.0079329999999999
266.40000000000003,-0.008942
266.6,-0.008515
266.8,-0.0083349999999999
267.00000000000006,-0.0061299999999999
267.2,-0.0055529999999999
267.40000000000003,-0.006008
267.6,-0.007735
267.8,-0.0076389999999999
268.00000000000006,-0.0083409999999999
268.2,-0.008237
268.40000000000003,-0.0084409999999999
268.6,-0.0074039999999999
268.8,-0.0054589999999998
269.00000000000006,-0.002318
269.2,0.000266
269.40000000000003,0.001462
269.6,0.001454
269.8,-0.0005319999999999
270.00000000000006,-0.0019059999999999
270.2,-0.003012
270.40000000000003,-0.003406
270.6,-0.002728
270.8,-0.0021089999999999
271.00000000000006,-0.0026789999999998
271.2,-0.0051499999999999
271.40000000000003,-0.0078709999999999
271.6,-0.0105869999999999
271.8,-0.0107859999999999
272.00000000000006,-0.011109
272.2,-0.0102959999999998
272.40000000000003,-0.0085429999999999
272.6,-0.0069589999999999
272.8,-0.007133
273.00000000000006,-0.0060759999999999
273.2,-0.0059709999999999
273.40000000000003,-0.0066429999999999
273.6,-0.0085979999999998
273.8,-0.0088809999999999
274.00000000000006,-0.009282
274.2,-0.008853
274.40000000000003,-0.008032
274.6,-0.004993
274.8,-0.003959
275.00000000000006,-0.003241
275.2,-0.003338
275.40000000000003,-0.0047429999999999
275.6,-0.0066489999999999
275.8,-0.0077879999999999
276.00000000000006,-0.0103599999999999
276.2,-0.0117939999999998
276.40000000000003,-0.0112919999999998
276.6,-0.0102819999999999
276.8,-0.009028
277.00000000000006,-0.006736
277.2,-0.0047169999999998
277.40000000000003,-0.004121
277.6,-0.003832
277.8,-0.003311
278.00000000000006,-0.0035229999999999
278.2,-0.0049299999999998
278.40000000000003,-0.0071499999999999
278.6,-0.009676
278.8,-0.0117369999999998
279.00000000000006,-0.0113229999999999
279.2,-0.0089639999999999
279.40000000000003,-0.0063519999999999
279.6,-0.0050879999999999
279.8,-0.0035149999999999
280.00000000000006,-0.004502
280.2,-0.0052509999999998
280.40000000000003,-0.006413
280.6,-0.0072699999999998
280.8,-0.008615
281.00000000000006,-0.008426
281.2,-0.00879
281.40000000000003,-0.0065889999999999
281.6,-0.0060439999999999
281.8,-0.00522
282.00000000000006,-0.0061549999999999
282.2,-0.007222
282.40000000000003,-0.00865
282.6,-0.0081869999999999
282.8,-0.00777
283.00000000000006,-0.0057229999999999
283.2,-0.0039219999999999
283.40000000000003,-0.0027759999999998
283.6,-0.00174
283.8,-0.001384
284.00000000000006,-0.001784
284.2,-0.0027299999999998
284.40000000000003,-0.003991
284.6,-0.004167
284.8,-0.0056479999999998
285.00000000000006,-0.0078739999999999
285.2,-0.00889
285.40000000000003,-0.0083139999999999
285.6,-0.0096979999999999
285.8,-0.009514
286.00000000000006,-0.0082139999999999
286.2,-0.007668
286.40000000000003,-0.008712
286.6,-0.007444
286.8,-0.0072339999999999
287.00000000000006,-0.00845
287.2,-0.0097229999999999
287.40000000000003,-0.0103889999999999
287.6,-0.0120899999999999
287.8,-0.0141339999999998
288.00000000000006,-0.013751
288.2,-0.0112699999999998
288.40000000000003,-0.008901
288.6,-0.007724
288.8,-0.0063009999999998
289.00000000000006,-0.005468
289.2,-0.006475
289.40000000000003,-0.005646
289.6,-0.0041389999999998
289.8,-0.0022999999999999
290.00000000000006,-0.00313
290.2,-0.0030729999999998
290.40000000000003,-0.0057339999999999
290.6,-0.008151
290.8,-0.0114849999999999
291.00000000000006,-0.0111809999999998
291.2,-0.0121059999999999
291.40000000000003,-0.0113339999999999
291.6,-0.010804
291.8,-0.0085089999999998
292.00000000000006,-0.0087569999999999
292.2,-0.006942
292.40000000000003,-0.0058629999999999
292.6,-0.0051539999999998
292.8,-0.005023
293.00000000000006,-0.00428
293.2,-0.0044889999999999
293.40000000000003,-0.004917
293.6,-0.0061419999999998
293.8,-0.0073699999999998
294.00000000000006,-0.009681
294.2,-0.0118899999999999
294.40000000000003,-0.013854
294.6,-0.0126919999999999
294.8,-0.0116019999999998
295.00000000000006,-0.0072799999999999
295.2,-0.0047829999999999
295.40000000000003,-0.0014279999999999
295.6,-0.0004089999999998
295.8,0.0008589999999999
296.00000000000006,0.000232
296.2,0.0012130000000001
296.40000000000003,-0.000569
296.6,-0.0032039999999999
296.8,-0.0056039999999999
297.00000000000006,-0.0077989999999998
297.2,-0.008969
297.40000000000003,-0.0090809999999998
297.6,-0.008126
297.8,-0.0077449999999998
298.00000000000006,-0.0070219999999998
298.2,-0.006267
298.40000000000003,-0.0038139999999999
298.6,-0.0007489999999998
298.8,0.001459
299.00000000000006,0.00259
299.2,0.0030099999999999
299.40000000000003,0.003751
299.6,0.0042299999999999
299.7999999999999,0.0023939999999997
299.99999999999994,0.0006919999999999
300.1999999999999,-0.002882
300.3999999999999,-0.0065240000000001
300.6,-0.009473
300.7999999999999,-0.0112120000000002
300.99999999999994,-0.0136330000000002
301.1999999999999,-0.0131230000000002
301.3999999999999,-0.0100740000000001
301.6,-0.007573
301.7999999999999,-0.0051620000000001
301.99999999999994,-0.0023160000000002
302.1999999999999,-0.00045
302.3999999999999,-0.0022930000000001
302.6,-0.0053210000000001
302.7999999999999,-0.0078090000000001
302.99999999999994,-0.007824
303.1999999999999,-0.0091310000000002
303.3999999999999,-0.0092180000000001
303.6,-0.0088050000000001
303.7999999999999,-0.0082520000000001
303.99999999999994,-0.0080420000000001
304.1999999999999,-0.0062980000000001
304.3999999999999,-0.0047000000000001
304.6,-0.0033280000000002
304.7999999999999,-0.002129
304.99999999999994,-0.003138
305.1999999999999,-0.0046670000000001
305.3999999999999,-0.007268
305.6,-0.007894
305.7999999999999,-0.0083740000000001
305.99999999999994,-0.0096600000000002
306.1999999999999,-0.009084
306.3999999999999,-0.0063010000000001
306.6,-0.0055500000000001
306.7999999999999,-0.0062540000000002
306.99999999999994,-0.007044
307.1999999999999,-0.0081200000000001
307.3999999999999,-0.0103600000000001
307.6,-0.0114370000000001
307.7999999999999,-0.0122060000000001
307.99999999999994,-0.0119220000000002
308.1999999999999,-0.0115310000000001
308.3999999999999,-0.0107680000000001
308.6,-0.008169
308.7999999999999,-0.0073310000000001
308.99999999999994,-0.008383
309.1999999999999,-0.0089450000000002
309.3999999999999,-0.007862
309.6,-0.0093700000000001
309.7999999999999,-0.009894
309.99999999999994,-0.007805
310.1999999999999,-0.0070610000000002
310.3999999999999,-0.008747
310.6,-0.0095310000000001
310.7999999999999,-0.0102890000000002
310.99999999999994,-0.010717
311.1999999999999,-0.0101840000000001
311.3999999999999,-0.0099460000000002
311.6,-0.0104940000000002
311.7999999999999,-0.010828
311.99999999999994,-0.009748
312.1999999999999,-0.010053
312.3999999999999,-0.0099660000000001
312.6,-0.0100120000000001
312.7999999999999,-0.0086940000000002
312.99999999999994,-0.0095260000000001
313.1999999999999,-0.010078
313.3999999999999,-0.0093530000000001
313.6,-0.007632
313.7999999999999,-0.0061570000000001
313.99999999999994,-0.0060950000000001
314.1999999999999,-0.006509
314.3999999999999,-0.0082000000000002
314.6,-0.0108540000000001
314.7999999999999,-0.0141890000000002
314.99999999999994,-0.0158170000000001
315.1999999999999,-0.0173630000000002
315.3999999999999,-0.0178520000000002
315.6,-0.01797
315.7999999999999,-0.0194800000000001
315.99999999999994,-0.020048
316.1999999999999,-0.0189940000000001
316.3999999999999,-0.0167750000000002
316.6,-0.015678
316.7999999999999,-0.015111
316.99999999999994,-0.0159530000000001
317.1999999999999,-0.0164550000000001
317.3999999999999,-0.0180280000000001
317.6,-0.018024
317.7999999999999,-0.017403
317.99999999999994,-0.0162390000000001
318.1999999999999,-0.014547
318.3999999999999,-0.011667
318.6,-0.008742
318.7999999999999,-0.00537
318.99999999999994,-0.0017820000000001
319.1999999999999,-0.0017930000000001
319.3999999999999,-0.0042810000000002
319.6,-0.007435
319.7999999999999,-0.007913
319.99999999999994,-0.0094990000000001
320.1999999999999,-0.0117200000000001
320.3999999999999,-0.014434
320.6,-0.0161270000000002
320.7999999999999,-0.0186400000000002
320.99999999999994,-0.020882
321.1999999999999,-0.0212750000000001
321.3999999999999,-0.0184670000000002
321.6,-0.0156770000000001
321.7999999999999,-0.0154860000000001
321.99999999999994,-0.0132450000000001
322.1999999999999,-0.0107530000000002
322.3999999999999,-0.0104210000000002
322.6,-0.0112150000000001
322.7999999999999,-0.0104330000000001
322.99999999999994,-0.0125210000000002
323.1999999999999,-0.0131340000000002
323.3999999999999,-0.013122
323.6,-0.0116830000000001
323.7999999999999,-0.011875
323.99999999999994,-0.0097250000000002
324.1999999999999,-0.0090000000000001
324.3999999999999,-0.0088510000000001
324.6,-0.010858
324.7999999999999,-0.010523
324.99999999999994,-0.0125840000000001
325.1999999999999,-0.014488
325.3999999999999,-0.0154880000000001
325.6,-0.014863
325.7999999999999,-0.0133670000000001
325.99999999999994,-0.0100490000000001
326.1999999999999,-0.006226
326.3999999999999,-0.00252
326.6,0.0011849999999997
326.7999999999999,0.0018289999999998
326.99999999999994,-0.0011820000000002
327.1999999999999,-0.0052040000000002
327.3999999999999,-0.009546
327.6,-0.0139900000000001
327.7999999999999,-0.0157660000000001
327.99999999999994,-0.014018
328.1999999999999,-0.0120970000000002
328.3999999999999,-0.0108130000000001
328.6,-0.0109480000000001
328.7999999999999,-0.011589
328.99999999999994,-0.012348
329.1999999999999,-0.0119120000000001
329.3999999999999,-0.0119470000000001
329.6,-0.0115800000000001
329.7999999999999,-0.0124140000000001
329.99999999999994,-0.0151400000000001
330.1999999999999,-0.017797
330.3999999999999,-0.0196740000000001
330.6,-0.0193050000000001
330.7999999999999,-0.0178470000000001
330.99999999999994,-0.014985
331.1999999999999,-0.0136950000000002
331.3999999999999,-0.0125950000000001
331.6,-0.0118770000000001
331.7999999999999,-0.01136
331.99999999999994,-0.0106250000000001
332.1999999999999,-0.009559
332.3999999999999,-0.0090050000000001
332.6,-0.0099390000000001
332.7999999999999,-0.012774
332.99999999999994,-0.015597
333.1999999999999,-0.0177360000000001
333.3999999999999,-0.0179840000000002
333.6,-0.0190480000000001
333.7999999999999,-0.0197100000000001
333.99999999999994,-0.0216520000000002
334.1999999999999,-0.020839
334.3999999999999,-0.0193620000000001
334.6,-0.017738
334.7999999999999,-0.0162860000000002
334.99999999999994,-0.013994
335.1999999999999,-0.013686
335.3999999999999,-0.0167180000000002
335.6,-0.018067
335.7999999999999,-0.0183930000000001
335.99999999999994,-0.017136
336.1999999999999,-0.0167910000000002
336.3999999999999,-0.0141580000000001
336.6,-0.0131080000000001
336.7999999999999,-0.0122200000000001
336.99999999999994,-0.0133070000000001
337.1999999999999,-0.0111750000000001
337.3999999999999,-0.009673
337.6,-0.0080350000000002
337.7999999999999,-0.006169
337.99999999999994,-0.0051230000000002
338.1999999999999,-0.0081780000000002
338.3999999999999,-0.0136580000000001
338.6,-0.0175330000000002
338.7999999999999,-0.0207810000000001
338.99999999999994,-0.0209780000000001
339.1999999999999,-0.0194880000000001
339.3999999999999,-0.0170990000000001
339.6,-0.0139900000000001
339.7999999999999,-0.0113780000000001
339.99999999999994,-0.0100150000000001
340.1999999999999,-0.0111020000000001
340.3999999999999,-0.009959
340.6,-0.0117550000000001
340.7999999999999,-0.0133310000000002
340.99999999999994,-0.015902
341.1999999999999,-0.0154770000000001
341.3999999999999,-0.0145520000000001
341.6,-0.0121780000000002
341.7999999999999,-0.0125970000000001
341.99999999999994,-0.0127220000000001
342.1999999999999,-0.013867
342.3999999999999,-0.0157820000000001
342.6,-0.0190270000000001
342.7999999999999,-0.0192640000000001
342.99999999999994,-0.0184350000000002
343.1999999999999,-0.0176390000000001
343.3999999999999,-0.016904
343.6,-0.0160460000000002
343.7999999999999,-0.0169000000000001
343.99999999999994,-0.0165890000000001
344.1999999999999,-0.0158250000000002
344.3999999999999,-0.0168260000000002
344.6,-0.0167300000000001
344.7999999999999,-0.015568
344.99999999999994,-0.0155360000000002
345.1999999999999,-0.0155740000000001
345.3999999999999,-0.0145240000000002
345.6,-0.0144860000000002
345.7999999999999,-0.0136480000000001
345.99999999999994,-0.0112260000000001
346.1999999999999,-0.010396
346.3999999999999,-0.0085380000000001
346.6,-0.0084820000000001
346.7999999999999,-0.0092240000000001
346.99999999999994,-0.0121440000000001
347.1999999999999,-0.011835
347.3999999999999,-0.0126950000000001
347.6,-0.011149
347.7999999999999,-0.010118
347.99999999999994,-0.009079
348.1999999999999,-0.010329
348.3999999999999,-0.01153
348.6,-0.0126650000000001
348.7999999999999,-0.0124950000000001
348.99999999999994,-0.013608
349.1999999999999,-0.0149940000000001
349.3999999999999,-0.016164
349.6,-0.0151350000000001
349.7999999999999,-0.0149430000000001
349.99999999999994,-0.0152500000000002
350.1999999999999,-0.01506
350.3999999999999,-0.014847
350.6,-0.0165460000000001
350.7999999999999,-0.018788
350.99999999999994,-0.018483
351.1999999999999,-0.018461
351.3999999999999,-0.0182350000000002
351.6,-0.016947
351.7999999999999,-0.0174170000000002
351.99999999999994,-0.018677
352.1999999999999,-0.018472
352.3999999999999,-0.0179280000000001
352.6,-0.0184650000000001
352.7999999999999,-0.0164130000000002
352.99999999999994,-0.015079
353.1999999999999,-0.0146670000000002
353.3999999999999,-0.0154690000000001
353.6,-0.0165520000000001
353.7999999999999,-0.017009
353.99999999999994,-0.0158960000000001
354.1999999999999,-0.0168160000000001
354.3999999999999,-0.0161030000000002
354.6,-0.014971
354.7999999999999,-0.01285
354.99999999999994,-0.0121390000000001
355.1999999999999,-0.010167
355.3999999999999,-0.010925
355.6,-0.0114510000000001
355.7999999999999,-0.0125730000000001
355.99999999999994,-0.013171
356.1999999999999,-0.014396
356.3999999999999,-0.015198
356.6,-0.0152970000000001
356.7999999999999,-0.015705
356.99999999999994,-0.0161350000000002
357.1999999999999,-0.015762
357.3999999999999,-0.0140540000000002
357.6,-0.0149450000000002
357.7999999999999,-0.017398
357.99999999999994,-0.0176770000000001
358.1999999999999,-0.0145030000000001
358.3999999999999,-0.012207
358.6,-0.009284
358.7999999999999,-0.0082200000000001
358.99999999999994,-0.0098500000000001
359.1999999999999,-0.0143900000000001
359.3999999999999,-0.019678
359.6,-0.022315
359.7999999999999,-0.02323
359.99999999999994,-0.0243860000000002
360.1999999999999,-0.0246370000000002
360.3999999999999,-0.0232560000000001
360.6,-0.0232320000000001
360.7999999999999,-0.0211190000000001
361.0,-0.017619
361.1999999999999,-0.015716
361.3999999999999,-0.0134520000000002
361.6,-0.0129920000000001
361.7999999999999,-0.0164030000000001
362.0,-0.0199310000000001
362.1999999999999,-0.02184
362.3999999999999,-0.023255
362.6,-0.021595
362.7999999999999,-0.0195960000000001
363.0,-0.0199060000000002
363.1999999999999,-0.023033
363.3999999999999,-0.0256360000000002
363.6,-0.0290260000000002
363.7999999999999,-0.028583
364.0,-0.0236140000000002
364.1999999999999,-0.0184940000000002
364.3999999999999,-0.0155260000000001
364.6,-0.015117
364.7999999999999,-0.016296
365.0,-0.020658
365.1999999999999,-0.0216310000000001
365.3999999999999,-0.0238630000000001
365.6,-0.0241090000000001
365.7999999999999,-0.0255910000000001
366.0,-0.0258640000000001
366.1999999999999,-0.0283520000000001
366.3999999999999,-0.0290290000000001
366.6,-0.0285900000000001
366.7999999999999,-0.0266270000000001
367.0,-0.024933
367.1999999999999,-0.0230150000000002
367.3999999999999,-0.021276
367.6,-0.0221770000000001
367.7999999999999,-0.0219260000000001
368.0,-0.0201840000000002
368.1999999999999,-0.0176790000000002
368.3999999999999,-0.0159900000000001
368.6,-0.0146180000000002
368.7999999999999,-0.0144330000000001
369.0,-0.0169890000000001
369.1999999999999,-0.021082
369.3999999999999,-0.0231380000000001
369.6,-0.0243010000000001
369.7999999999999,-0.0250230000000002
370.0,-0.0244890000000002
370.1999999999999,-0.022785
370.3999999999999,-0.024129
370.6,-0.0232210000000001
370.7999999999999,-0.0215230000000001
371.0,-0.0189180000000002
371.1999999999999,-0.0175400000000001
371.3999999999999,-0.015433
371.6,-0.014712
371.7999999999999,-0.013829
372.0,-0.0148490000000001
372.1999999999999,-0.0157760000000002
372.3999999999999,-0.017182
372.6,-0.0178660000000001
372.7999999999999,-0.021643
373.0,-0.0225190000000001
373.1999999999999,-0.022391
373.3999999999999,-0.0201600000000001
373.6,-0.0187180000000002
373.7999999999999,-0.0167330000000001
374.0,-0.0184600000000001
374.1999999999999,-0.0205890000000001
374.3999999999999,-0.0221660000000001
374.6,-0.0232750000000001
374.7999999999999,-0.0224060000000001
375.0,-0.0195710000000002
375.1999999999999,-0.0172450000000001
375.3999999999999,-0.016458
375.6,-0.0175960000000001
375.7999999999999,-0.0193070000000001
376.0,-0.0207460000000001
376.1999999999999,-0.022796
376.3999999999999,-0.024763
376.6,-0.0231100000000001
376.7999999999999,-0.0214670000000001
377.0,-0.0217720000000001
377.1999999999999,-0.0231510000000001
377.3999999999999,-0.0232890000000001
377.6,-0.0254
377.7999999999999,-0.0272040000000002
378.0,-0.0273320000000001
378.1999999999999,-0.0253620000000001
378.3999999999999,-0.0241650000000002
378.6,-0.0245870000000001
378.7999999999999,-0.025174
379.0,-0.0255720000000001
379.1999999999999,-0.025549
379.3999999999999,-0.0244030000000001
379.6,-0.0229890000000001
379.7999999999999,-0.0222630000000001
380.0,-0.0223460000000002
380.1999999999999,-0.0220600000000001
380.3999999999999,-0.022369
380.6,-0.0223930000000001
380.7999999999999,-0.022286
381.0,-0.0209410000000001
381.1999999999999,-0.021527
381.3999999999999,-0.0217410000000002
381.6,-0.0213850000000002
381.7999999999999,-0.0221810000000002
382.0,-0.023462
382.1999999999999,-0.0234880000000001
382.3999999999999,-0.0235320000000001
382.6,-0.024364
382.7999999999999,-0.024234
383.0,-0.0249070000000002
383.1999999999999,-0.0252700000000001
383.3999999999999,-0.025846
383.6,-0.025813
383.7999999999999,-0.0265200000000001
384.0,-0.0262620000000002
384.1999999999999,-0.0280140000000002
384.3999999999999,-0.028394
384.6,-0.0286890000000001
384.7999999999999,-0.0267570000000001
385.0,-0.0282360000000001
385.1999999999999,-0.026852
385.3999999999999,-0.028431
385.6,-0.029047
385.7999999999999,-0.02973
386.0,-0.028105
386.1999999999999,-0.028167
386.3999999999999,-0.0263590000000002
386.6,-0.0260490000000002
386.7999999999999,-0.0276630000000002
387.0,-0.027654
387.1999999999999,-0.025781
387.3999999999999,-0.0270510000000001
387.6,-0.0284460000000001
387.7999999999999,-0.028091
388.0,-0.0276870000000002
388.1999999999999,-0.0265350000000001
388.3999999999999,-0.023087
388.6,-0.0201060000000001
388.7999999999999,-0.0185600000000001
389.0,-0.0191910000000001
389.1999999999999,-0.021635
389.3999999999999,-0.02452
389.6,-0.0264930000000001
389.7999999999999,-0.0268410000000001
390.0,-0.0263520000000001
390.1999999999999,-0.02567
390.3999999999999,-0.0251390000000002
390.6,-0.0255370000000001
390.7999999999999,-0.027338
391.0,-0.0273240000000001
391.1999999999999,-0.029174
391.3999999999999,-0.0310230000000002
391.6,-0.0320310000000001
391.7999999999999,-0.0317290000000001
392.0,-0.0335210000000001
392.1999999999999,-0.034189
392.3999999999999,-0.0353700000000001
392.6,-0.0353350000000001
392.7999999999999,-0.034796
393.0,-0.0325380000000001
393.1999999999999,-0.030915
393.3999999999999,-0.0286320000000002
393.6,-0.0257990000000001
393.7999999999999,-0.0246680000000001
394.0,-0.0253070000000001
394.1999999999999,-0.0269030000000001
394.3999999999999,-0.0264330000000001
394.6,-0.0272350000000001
394.7999999999999,-0.0274450000000001
395.0,-0.0280520000000001
395.1999999999999,-0.027616
395.3999999999999,-0.0286220000000001
395.6,-0.0303780000000002
395.7999999999999,-0.0321220000000002
396.0,-0.0330270000000001
396.1999999999999,-0.0313020000000001
396.3999999999999,-0.0294740000000002
396.6,-0.0285410000000001
396.7999999999999,-0.0289350000000001
397.0,-0.0291380000000001
397.1999999999999,-0.030588
397.3999999999999,-0.0310100000000002
397.6,-0.0285980000000001
397.7999999999999,-0.0265840000000001
398.0,-0.02546
398.1999999999999,-0.0244380000000001
398.3999999999999,-0.0240140000000002
398.6,-0.0250130000000001
398.7999999999999,-0.0247810000000001
399.0,-0.024537
399.1999999999999,-0.0254960000000001
399.3999999999999,-0.0278790000000002
399.6,-0.0301270000000002
399.7999999999999,-0.030931
400.0,-0.0303080000000002
400.1999999999999,-0.028213
400.3999999999999,-0.026923
400.6,-0.026537
400.7999999999999,-0.0274910000000001
401.0,-0.0279740000000001
401.1999999999999,-0.029778
401.3999999999999,-0.0295340000000001
401.6,-0.0301200000000001
401.7999999999999,-0.0302630000000001
402.0,-0.03156
402.1999999999999,-0.0325280000000001
402.3999999999999,-0.029889
402.6,-0.02557
402.7999999999999,-0.02275
403.0,-0.0215940000000001
403.1999999999999,-0.020267
403.3999999999999,-0.0239880000000001
403.6,-0.028863
403.7999999999999,-0.0329060000000001
404.0,-0.035012
404.1999999999999,-0.0364740000000001
404.3999999999999,-0.0358210000000001
404.6,-0.0345320000000002
404.7999999999999,-0.0327540000000001
405.0,-0.0289540000000001
405.1999999999999,-0.0257180000000001
405.3999999999999,-0.0256910000000001
405.6,-0.0252240000000001
405.7999999999999,-0.0250650000000001
406.0,-0.0267410000000001
406.1999999999999,-0.0291100000000001
406.3999999999999,-0.0282190000000002
406.6,-0.0276290000000001
406.7999999999999,-0.0267830000000002
407.0,-0.027792
407.1999999999999,-0.0297340000000001
407.3999999999999,-0.0322500000000001
407.6,-0.032766
407.7999999999999,-0.0338960000000001
408.0,-0.0356940000000001
408.1999999999999,-0.0351050000000001
408.3999999999999,-0.0348260000000002
408.6,-0.0353510000000001
408.7999999999999,-0.0353590000000001
409.0,-0.0344200000000001
409.1999999999999,-0.034966
409.3999999999999,-0.0348130000000002
409.6,-0.0342610000000001
409.7999999999999,-0.0338070000000001
410.0,-0.0325350000000002
410.1999999999999,-0.0311610000000002
410.3999999999999,-0.0314
410.6,-0.033274
410.7999999999999,-0.033303
411.0,-0.033943
411.1999999999999,-0.0327920000000001
411.3999999999999,-0.031546
411.6,-0.0307680000000001
411.7999999999999,-0.032896
412.0,-0.0322500000000001
412.1999999999999,-0.0314
412.3999999999999,-0.0296860000000001
412.6,-0.028979
412.7999999999999,-0.0281010000000001
413.0,-0.03092
413.1999999999999,-0.0348020000000002
413.3999999999999,-0.0373670000000001
413.6,-0.0372770000000002
413.7999999999999,-0.0357850000000001
414.0,-0.0324730000000001
414.1999999999999,-0.0297290000000001
414.3999999999999,-0.0283520000000001
414.6,-0.027616
414.7999999999999,-0.0268920000000001
415.0,-0.0262190000000002
415.1999999999999,-0.0251500000000002
415.3999999999999,-0.025446
415.6,-0.0257820000000001
415.7999999999999,-0.027244
416.0,-0.028445
416.1999999999999,-0.0287330000000001
416.3999999999999,-0.0259300000000002
416.6,-0.0241850000000001
416.7999999999999,-0.023794
417.0,-0.0246590000000002
417.1999999999999,-0.0262040000000001
417.3999999999999,-0.0289080000000001
417.6,-0.0313150000000002
417.7999999999999,-0.0326010000000001
418.0,-0.0331080000000001
418.1999999999999,-0.0329670000000001
418.3999999999999,-0.0327480000000002
418.6,-0.0307350000000001
418.7999999999999,-0.0285700000000002
419.0,-0.0272450000000001
419.1999999999999,-0.0267680000000001
419.3999999999999,-0.026817
419.6,-0.0285540000000001
419.7999999999999,-0.030253
420.0,-0.0331430000000001
420.1999999999999,-0.033986
420.3999999999999,-0.0347630000000001
420.6,-0.0345140000000001
420.7999999999999,-0.034059
421.0,-0.031565
421.1999999999999,-0.0298420000000001
421.3999999999999,-0.030175
421.6,-0.031508
421.7999999999999,-0.0316530000000001
422.0,-0.0301690000000001
422.1999999999999,-0.0292810000000001
422.3999999999999,-0.0266320000000002
422.6,-0.025549
422.7999999999999,-0.0257450000000001
423.0,-0.0273150000000002
423.1999999999999,-0.0300490000000002
423.3999999999999,-0.0334990000000001
423.6,-0.0327970000000001
423.7999999999999,-0.0296450000000001
424.0,-0.0273430000000001
424.1999999999999,-0.026591
424.3999999999999,-0.0247520000000001
424.6,-0.0247270000000001
424.7999999999999,-0.026156
425.0,-0.029422
425.1999999999999,-0.0307940000000002
425.3999999999999,-0.0323310000000001
425.6,-0.034307
425.7999999999999,-0.036639
426.0,-0.0387750000000002
426.1999999999999,-0.0391420000000002
426.3999999999999,-0.0381810000000002
426.6,-0.0365870000000001
426.7999999999999,-0.0367030000000001
427.0,-0.034129
427.1999999999999,-0.0324440000000001
427.3999999999999,-0.0317180000000001
427.6,-0.0310570000000001
427.7999999999999,-0.029892
428.0,-0.0290110000000001
428.1999999999999,-0.0293560000000001
428.3999999999999,-0.0318230000000001
428.6,-0.0347870000000001
428.7999999999999,-0.035865
429.0,-0.0365400000000002
429.1999999999999,-0.0383600000000001
429.3999999999999,-0.038923
429.6,-0.038032
429.7999999999999,-0.0374890000000001
430.0,-0.0372850000000002
430.1999999999999,-0.0353100000000001
430.3999999999999,-0.033301
430.6,-0.0319550000000001
430.7999999999999,-0.0323810000000002
431.0,-0.0332510000000001
431.1999999999999,-0.033865
431.3999999999999,-0.0327490000000001
431.6,-0.032545
431.7999999999999,-0.0315450000000001
432.0,-0.0310990000000002
432.1999999999999,-0.031041
432.3999999999999,-0.032718
432.6,-0.034318
432.7999999999999,-0.0357830000000001
433.0,-0.034782
433.1999999999999,-0.033695
433.3999999999999,-0.0317480000000001
433.6,-0.0312390000000002
433.7999999999999,-0.0299820000000001
434.0,-0.030607
434.1999999999999,-0.0304520000000001
434.3999999999999,-0.0303870000000001
434.6,-0.0297180000000001
434.7999999999999,-0.02916
435.0,-0.0305410000000001
435.1999999999999,-0.0332670000000001
435.3999999999999,-0.0377480000000001
435.6,-0.039846
435.7999999999999,-0.042183
436.0,-0.040955
436.1999999999999,-0.0394930000000002
436.3999999999999,-0.0368000000000001
436.6,-0.0353260000000001
436.7999999999999,-0.0326700000000002
437.0,-0.0306750000000002
437.1999999999999,-0.0292420000000002
437.3999999999999,-0.027584
437.6,-0.0268480000000002
437.7999999999999,-0.027311
438.0,-0.0298490000000002
438.1999999999999,-0.030958
438.3999999999999,-0.031063
438.6,-0.0316590000000001
438.7999999999999,-0.0317480000000001
439.0,-0.0311050000000001
439.1999999999999,-0.0305780000000002
439.3999999999999,-0.0319790000000002
439.6,-0.0323850000000001
439.7999999999999,-0.0348940000000002
440.0,-0.0367060000000001
440.1999999999999,-0.038051
440.3999999999999,-0.0373370000000001
440.6,-0.036418
440.7999999999999,-0.0347090000000001
441.0,-0.0316930000000001
441.1999999999999,-0.031052
441.3999999999999,-0.0325750000000002
441.6,-0.03462
441.7999999999999,-0.034145
442.0,-0.0361410000000002
442.1999999999999,-0.0362390000000001
442.3999999999999,-0.0360920000000002
442.6,-0.0359260000000001
442.7999999999999,-0.037754
443.0,-0.0369140000000001
443.1999999999999,-0.0358210000000001
443.3999999999999,-0.035854
443.6,-0.0357710000000002
443.7999999999999,-0.0348940000000002
444.0,-0.0353500000000002
444.1999999999999,-0.0365190000000001
444.3999999999999,-0.0349490000000001
444.6,-0.0329380000000001
444.7999999999999,-0.030267
445.0,-0.0289950000000001
445.1999999999999,-0.030426
445.3999999999999,-0.0340200000000001
445.6,-0.0377610000000001
445.7999999999999,-0.0402410000000001
446.0,-0.0424900000000001
446.1999999999999,-0.0411450000000002
446.3999999999999,-0.0402220000000002
446.6,-0.0395550000000002
446.7999999999999,-0.0409060000000001
447.0,-0.0413350000000001
447.1999999999999,-0.0414260000000001
447.3999999999999,-0.037722
447.6,-0.0325000000000001
447.7999999999999,-0.0289490000000001
448.0,-0.0265190000000001
448.1999999999999,-0.0268260000000002
448.3999999999999,-0.0290830000000001
448.6,-0.031414
448.7999999999999,-0.0331750000000001
449.0,-0.0334850000000002
449.1999999999999,-0.0321520000000001
449.3999999999999,-0.031201
449.6,-0.030901
449.7999999999999,-0.0296230000000001
450.0,-0.0278290000000001
450.1999999999999,-0.02801
450.3999999999999,-0.0289460000000001
450.6,-0.030612
450.7999999999999,-0.0317610000000001
451.0,-0.0329410000000001
451.1999999999999,-0.034027
451.3999999999999,-0.0347600000000001
451.6,-0.0343040000000001
451.7999999999999,-0.035816
452.0,-0.0398990000000001
452.1999999999999,-0.0420880000000001
452.3999999999999,-0.0439450000000001
452.6,-0.0478850000000001
452.7999999999999,-0.0499480000000001
453.0,-0.048059
453.1999999999999,-0.0444510000000002
453.3999999999999,-0.040826
453.6,-0.036745
453.7999999999999,-0.0337820000000002
454.0,-0.0326950000000001
454.1999999999999,-0.0337950000000002
454.3999999999999,-0.0359910000000001
454.6,-0.0376590000000001
454.7999999999999,-0.038329
455.0,-0.0391130000000001
455.1999999999999,-0.039419
455.3999999999999,-0.0386290000000002
455.6,-0.0362770000000001
455.7999999999999,-0.0348670000000002
456.0,-0.033465
456.1999999999999,-0.0324410000000001
456.3999999999999,-0.0307450000000002
456.6,-0.0310450000000002
456.7999999999999,-0.0314530000000001
457.0,-0.031498
457.1999999999999,-0.0310190000000001
457.3999999999999,-0.0317180000000001
457.6,-0.0318530000000001
457.7999999999999,-0.0315500000000001
458.0,-0.031716
458.1999999999999,-0.0327970000000001
458.3999999999999,-0.0305790000000001
458.6,-0.0277370000000001
458.7999999999999,-0.025411
459.0,-0.024793
459.1999999999999,-0.023384
459.3999999999999,-0.0255240000000001
459.6,-0.029824
459.7999999999999,-0.033122
460.0,-0.0345940000000002
460.1999999999999,-0.0367130000000002
460.3999999999999,-0.037106
460.6,-0.0358340000000001
460.7999999999999,-0.0349670000000001
461.0,-0.03682
461.1999999999999,-0.0369830000000002
461.3999999999999,-0.03631
461.6,-0.0347570000000001
461.7999999999999,-0.0342660000000001
462.0,-0.0328840000000001
462.1999999999999,-0.0323220000000001
462.3999999999999,-0.0329540000000001
462.6,-0.034518
462.7999999999999,-0.035255
463.0,-0.035414
463.1999999999999,-0.034707
463.3999999999999,-0.0329080000000001
463.6,-0.031533
463.7999999999999,-0.0320680000000002
464.0,-0.0323460000000002
464.1999999999999,-0.0332080000000001
464.3999999999999,-0.035784
464.6,-0.0382650000000002
464.7999999999999,-0.0387780000000002
465.0,-0.038326
465.1999999999999,-0.0375690000000001
465.3999999999999,-0.0368800000000002
465.6,-0.035322
465.7999999999999,-0.034172
466.0,-0.033357
466.1999999999999,-0.034394
466.3999999999999,-0.0365740000000001
466.6,-0.0379150000000001
466.7999999999999,-0.0381550000000001
467.0,-0.039268
467.1999999999999,-0.040029
467.3999999999999,-0.0396180000000001
467.6,-0.0389100000000002
467.7999999999999,-0.03933
468.0,-0.039114
468.1999999999999,-0.0395260000000001
468.3999999999999,-0.0391880000000002
468.6,-0.0384140000000001
468.7999999999999,-0.03814
469.0,-0.038124
469.1999999999999,-0.0371110000000001
469.3999999999999,-0.0362170000000001
469.6,-0.0389490000000001
469.7999999999999,-0.0402280000000001
470.0,-0.0404470000000001
470.1999999999999,-0.0391510000000001
470.3999999999999,-0.0392830000000001
470.6,-0.0395860000000001
470.7999999999999,-0.0403970000000002
471.0,-0.04234
471.1999999999999,-0.0440410000000002
471.3999999999999,-0.0434310000000002
471.6,-0.0414640000000001
471.7999999999999,-0.0412350000000001
472.0,-0.041279
472.1999999999999,-0.042297
472.3999999999999,-0.0434010000000002
472.6,-0.0432380000000001
472.7999999999999,-0.0399960000000001
473.0,-0.0369460000000001
473.1999999999999,-0.0357310000000001
473.3999999999999,-0.0372080000000001
473.6,-0.0369940000000001
473.7999999999999,-0.0390180000000002
474.0,-0.0391940000000001
474.1999999999999,-0.0386740000000001
474.3999999999999,-0.0372450000000001
474.6,-0.0387300000000001
474.7999999999999,-0.038788
475.0,-0.038974
475.1999999999999,-0.0406300000000001
475.3999999999999,-0.0430540000000001
475.6,-0.043881
475.7999999999999,-0.043743
476.0,-0.0440440000000001
476.1999999999999,-0.0429870000000001
476.3999999999999,-0.0408270000000001
476.6,-0.0402920000000002
476.7999999999999,-0.0389220000000001
477.0,-0.037465
477.1999999999999,-0.036075
477.3999999999999,-0.035495
477.6,-0.035533
477.7999999999999,-0.035279
478.0,-0.036496
478.1999999999999,-0.036869
478.3999999999999,-0.0374080000000001
478.6,-0.0358500000000001
478.7999999999999,-0.0360530000000001
479.0,-0.0354510000000001
479.1999999999999,-0.034658
479.3999999999999,-0.0354230000000002
479.6,-0.0353780000000001
479.7999999999999,-0.0377440000000002
480.0,-0.0396050000000001
480.1999999999999,-0.0428480000000002
480.3999999999999,-0.0438020000000001
480.6,-0.0465010000000001
480.7999999999999,-0.047266
481.0,-0.0452620000000001
481.1999999999999,-0.0414450000000001
481.3999999999999,-0.0363840000000001
481.6,-0.0327620000000001
481.7999999999999,-0.0325680000000001
482.0,-0.0349100000000002
482.1999999999999,-0.0362110000000002
482.3999999999999,-0.038032
482.6,-0.038521
482.7999999999999,-0.036394
483.0,-0.034232
483.1999999999999,-0.0354660000000002
483.3999999999999,-0.035465
483.6,-0.0354050000000001
483.7999999999999,-0.0341630000000001
484.0,-0.032874
484.1999999999999,-0.029935
484.3999999999999,-0.029916
484.6,-0.0313810000000001
484.7999999999999,-0.0323430000000002
485.0,-0.0330690000000002
485.1999999999999,-0.034237
485.3999999999999,-0.0342930000000001
485.6,-0.0318530000000001
485.7999999999999,-0.030909
486.0,-0.0319420000000001
486.1999999999999,-0.033786
486.3999999999999,-0.0356800000000001
486.6,-0.0373040000000002
486.7999999999999,-0.038958
487.0,-0.038013
487.1999999999999,-0.0368240000000001
487.3999999999999,-0.034445
487.6,-0.0330690000000002
487.7999999999999,-0.031673
488.0,-0.0321950000000001
488.1999999999999,-0.0355130000000001
488.3999999999999,-0.0397180000000001
488.6,-0.0431760000000001
488.7999999999999,-0.0458010000000002
489.0,-0.0472290000000001
489.1999999999999,-0.045568
489.3999999999999,-0.0442850000000001
489.6,-0.0431800000000002
489.7999999999999,-0.0412180000000002
490.0,-0.0393340000000002
490.1999999999999,-0.0381410000000002
490.3999999999999,-0.0362680000000001
490.6,-0.035525
490.7999999999999,-0.0365030000000001
491.0,-0.0382120000000001
491.1999999999999,-0.0387240000000002
491.3999999999999,-0.0404320000000002
491.6,-0.0423120000000001
491.7999999999999,-0.044019
492.0,-0.0454070000000002
492.1999999999999,-0.046842
492.3999999999999,-0.0456510000000001
492.6,-0.0436520000000002
492.7999999999999,-0.0431770000000002
493.0,-0.0425660000000001
493.1999999999999,-0.040572
493.3999999999999,-0.042855
493.6,-0.0447820000000001
493.7999999999999,-0.0447160000000002
494.0,-0.0445850000000001
494.1999999999999,-0.0471540000000001
494.3999999999999,-0.0464430000000002
494.6,-0.0458750000000001
494.7999999999999,-0.0446440000000001
495.0,-0.0439450000000001
495.1999999999999,-0.0421680000000002
495.3999999999999,-0.0409790000000001
495.6,-0.0403080000000002
495.7999999999999,-0.0410890000000001
496.0,-0.0413210000000001
496.1999999999999,-0.0421550000000001
496.3999999999999,-0.043565
496.6,-0.0446460000000001
496.7999999999999,-0.0454640000000001
497.0,-0.0473810000000001
497.1999999999999,-0.0472070000000002
497.3999999999999,-0.0451400000000001
497.6,-0.0438090000000002
497.7999999999999,-0.044928
498.0,-0.0455580000000002
498.1999999999999,-0.0471210000000001
498.3999999999999,-0.0487020000000002
498.6,-0.0488060000000001
498.7999999999999,-0.048027
499.0,-0.047101
499.1999999999999,-0.0468570000000001
499.3999999999999,-0.0462390000000001
499.6,-0.0466630000000001
499.7999999999999,-0.0454100000000001
500.0,-0.0438370000000001
500.1999999999999,-0.0418440000000002
500.3999999999999,-0.0400520000000002
500.6,-0.0401920000000002
500.7999999999999,-0.0396320000000001
501.0,-0.0388030000000001
501.1999999999999,-0.0392150000000002
501.3999999999999,-0.0403820000000001
501.6,-0.0398930000000001
501.7999999999999,-0.0423490000000001
502.0,-0.0456780000000001
502.1999999999999,-0.0475090000000002
502.3999999999999,-0.0486540000000002
502.6,-0.048305
502.7999999999999,-0.044934
503.0,-0.0409790000000001
503.1999999999999,-0.0380960000000001
503.3999999999999,-0.0368600000000001
503.6,-0.0386620000000001
503.7999999999999,-0.040418
504.0,-0.0431770000000002
504.1999999999999,-0.0468110000000001
504.3999999999999,-0.0508750000000002
504.6,-0.0501230000000001
504.7999999999999,-0.0505170000000001
505.0,-0.0524310000000001
505.1999999999999,-0.0528620000000001
505.3999999999999,-0.0527890000000002
505.6,-0.0539340000000001
505.7999999999999,-0.054561
506.0,-0.0537360000000002
506.1999999999999,-0.0514960000000002
506.3999999999999,-0.0484310000000001
506.6,-0.04573
506.7999999999999,-0.0451920000000001
507.0,-0.0450620000000001
507.1999999999999,-0.0456020000000001
507.3999999999999,-0.0451730000000001
507.6,-0.045282
507.7999999999999,-0.0446520000000001
508.0,-0.0445390000000001
508.1999999999999,-0.0441930000000001
508.3999999999999,-0.0455320000000001
508.6,-0.0478560000000001
508.7999999999999,-0.0479180000000001
509.0,-0.0452690000000002
509.1999999999999,-0.0440500000000001
509.3999999999999,-0.0435780000000001
509.6,-0.0428460000000001
509.7999999999999,-0.0407750000000002
510.0,-0.041924
510.1999999999999,-0.04278
510.3999999999999,-0.041587
510.6,-0.041158
510.7999999999999,-0.0439170000000002
511.0,-0.0449530000000002
511.1999999999998,-0.0453370000000001
511.3999999999999,-0.047282
511.5999999999999,-0.0481690000000001
511.8,-0.0484440000000001
512.0,-0.047217
512.1999999999998,-0.047749
512.3999999999999,-0.047943
512.5999999999999,-0.0494730000000001
512.8,-0.050642
513.0,-0.05363
513.1999999999998,-0.054097
513.3999999999999,-0.055009
513.5999999999999,-0.0518930000000001
513.8,-0.049293
514.0,-0.045452
514.1999999999998,-0.043538
514.3999999999999,-0.0410340000000002
514.5999999999999,-0.0418090000000002
514.8,-0.0417150000000001
515.0,-0.0420650000000002
515.1999999999998,-0.0403140000000001
515.3999999999999,-0.039921
515.5999999999999,-0.0413150000000002
515.8,-0.0424850000000001
516.0,-0.042683
516.1999999999998,-0.0447860000000002
516.3999999999999,-0.045741
516.5999999999999,-0.0456440000000002
516.8,-0.0456930000000002
517.0,-0.0470270000000001
517.1999999999998,-0.0477230000000001
517.3999999999999,-0.0473260000000002
517.5999999999999,-0.0456360000000002
517.8,-0.044623
518.0,-0.043244
518.1999999999998,-0.0436640000000001
518.3999999999999,-0.0448570000000001
518.5999999999999,-0.0463350000000002
518.8,-0.0456210000000001
519.0,-0.0452100000000001
519.1999999999998,-0.0437070000000001
519.3999999999999,-0.0448290000000002
519.5999999999999,-0.045001
519.8,-0.047573
520.0,-0.0484820000000001
520.1999999999998,-0.048815
520.3999999999999,-0.046051
520.5999999999999,-0.043117
520.8,-0.0394390000000002
521.0,-0.039036
521.1999999999998,-0.0391830000000001
521.3999999999999,-0.0417930000000001
521.5999999999999,-0.0436940000000001
521.8,-0.045139
522.0,-0.046162
522.1999999999998,-0.0462960000000001
522.3999999999999,-0.0448910000000002
522.5999999999999,-0.044483
522.8,-0.0447560000000002
523.0,-0.0424310000000001
523.1999999999998,-0.039695
523.3999999999999,-0.038175
523.5999999999999,-0.0383970000000002
523.8,-0.0395930000000002
524.0,-0.0421010000000001
524.1999999999998,-0.0456830000000001
524.3999999999999,-0.0483700000000002
524.5999999999999,-0.0505700000000002
524.8,-0.051973
525.0,-0.051492
525.1999999999998,-0.0485520000000001
525.3999999999999,-0.044083
525.5999999999999,-0.0411910000000002
525.8,-0.038772
526.0,-0.037635
526.1999999999998,-0.0399180000000001
526.3999999999999,-0.0415280000000002
526.5999999999999,-0.0429540000000001
526.8,-0.0424330000000001
527.0,-0.0424970000000002
527.1999999999998,-0.0422030000000002
527.3999999999999,-0.0457200000000002
527.5999999999999,-0.0478640000000001
527.8,-0.0506120000000001
528.0,-0.054591
528.1999999999998,-0.0555590000000001
528.3999999999999,-0.0554460000000001
528.5999999999999,-0.055463
528.8,-0.0559040000000001
529.0,-0.0525200000000001
529.1999999999998,-0.051808
529.3999999999999,-0.0494460000000001
529.5999999999999,-0.047646
529.8,-0.0469540000000001
530.0,-0.048796
530.1999999999998,-0.0493040000000002
530.3999999999999,-0.050426
530.5999999999999,-0.052934
530.8,-0.054788
531.0,-0.0559630000000002
531.1999999999998,-0.0559600000000002
531.3999999999999,-0.0544820000000001
531.5999999999999,-0.0504390000000001
531.8,-0.04631
532.0,-0.0417500000000001
532.1999999999998,-0.0401390000000001
532.3999999999999,-0.0405870000000001
532.5999999999999,-0.0407780000000002
532.8,-0.0417740000000002
533.0,-0.0448290000000002
533.1999999999998,-0.0461330000000002
533.3999999999999,-0.0483840000000002
533.5999999999999,-0.0497020000000001
533.8,-0.0485870000000001
534.0,-0.0468780000000002
534.1999999999998,-0.0469370000000002
534.3999999999999,-0.0462610000000001
534.5999999999999,-0.0466240000000002
534.8,-0.048855
535.0,-0.050297
535.1999999999998,-0.051379
535.3999999999999,-0.0522760000000002
535.5999999999999,-0.0534020000000001
535.8,-0.0530290000000002
536.0,-0.052961
536.1999999999998,-0.0530410000000001
536.3999999999999,-0.0524430000000002
536.5999999999999,-0.0500880000000001
536.8,-0.050197
537.0,-0.0496230000000001
537.1999999999998,-0.0489570000000001
537.3999999999999,-0.0469790000000001
537.5999999999999,-0.0475210000000001
537.8,-0.046132
538.0,-0.0452840000000001
538.1999999999998,-0.0438010000000002
538.3999999999999,-0.045052
538.5999999999999,-0.046205
538.8,-0.0477200000000002
539.0,-0.049255
539.1999999999998,-0.0501300000000002
539.3999999999999,-0.0496980000000002
539.5999999999999,-0.0484240000000002
539.8,-0.045571
540.0,-0.044229
540.1999999999998,-0.0429050000000001
540.3999999999999,-0.043341
540.5999999999999,-0.043789
540.8,-0.0461090000000001
541.0,-0.045986
541.1999999999998,-0.0460680000000002
541.3999999999999,-0.0434660000000002
541.5999999999999,-0.0423630000000001
541.8,-0.0423690000000001
542.0,-0.0442500000000001
542.1999999999998,-0.0458680000000002
542.3999999999999,-0.0484150000000001
542.5999999999999,-0.049336
542.8,-0.0498940000000001
543.0,-0.0507170000000001
543.1999999999998,-0.0522310000000001
543.3999999999999,-0.0530760000000001
543.5999999999999,-0.053349
543.8,-0.051441
544.0,-0.0490510000000001
544.1999999999998,-0.0475670000000001
544.3999999999999,-0.0465250000000001
544.5999999999999,-0.0458470000000001
544.8,-0.046388
545.0,-0.0487680000000001
545.1999999999998,-0.050092
545.3999999999999,-0.050882
545.5999999999999,-0.0518980000000002
545.8,-0.0532030000000001
546.0,-0.052262
546.1999999999998,-0.0506130000000002
546.3999999999999,-0.0507320000000002
546.5999999999999,-0.052016
546.8,-0.0531510000000001
547.0,-0.053905
547.1999999999998,-0.0556070000000001
547.3999999999999,-0.0574020000000001
547.5999999999999,-0.0580600000000002
547.8,-0.0588670000000002
548.0,-0.059306
548.1999999999998,-0.0583380000000002
548.3999999999999,-0.0552670000000001
548.5999999999999,-0.0534120000000002
548.8,-0.0532460000000001
549.0,-0.05326
549.1999999999998,-0.0553080000000001
549.3999999999999,-0.056432
549.5999999999999,-0.0554240000000001
549.8,-0.0531780000000001
550.0,-0.0510100000000002
550.1999999999998,-0.047973
550.3999999999999,-0.0482600000000001
550.5999999999999,-0.049668
550.8,-0.0502220000000002
551.0,-0.0525040000000001
551.1999999999998,-0.0551990000000002
551.3999999999999,-0.0538990000000001
551.5999999999999,-0.0516820000000002
551.8,-0.0514190000000001
552.0,-0.050521
552.1999999999998,-0.0499290000000001
552.3999999999999,-0.0515850000000002
552.5999999999999,-0.0546790000000001
552.8,-0.0548870000000001
553.0,-0.0531100000000002
553.1999999999998,-0.0497670000000001
553.3999999999999,-0.0492640000000001
553.5999999999999,-0.046143
553.8,-0.0441440000000001
554.0,-0.0437940000000001
554.1999999999998,-0.0455900000000002
554.3999999999999,-0.0451460000000001
554.5999999999999,-0.0453310000000002
554.8,-0.0460600000000002
555.0,-0.0464360000000001
555.1999999999998,-0.04644
555.3999999999999,-0.047371
555.5999999999999,-0.0487170000000001
555.8,-0.0491110000000001
556.0,-0.0510510000000001
556.1999999999998,-0.051479
556.3999999999999,-0.0511920000000001
556.5999999999999,-0.0523460000000002
556.8,-0.0528860000000002
557.0,-0.051719
557.1999999999998,-0.0506760000000001
557.3999999999999,-0.0506300000000001
557.5999999999999,-0.0509640000000002
557.8,-0.0521550000000001
558.0,-0.0527630000000001
558.1999999999998,-0.0544520000000001
558.3999999999999,-0.0541600000000002
558.5999999999999,-0.0542920000000002
558.8,-0.0550380000000001
559.0,-0.0558660000000001
559.1999999999998,-0.0562260000000001
559.3999999999999,-0.0555580000000002
559.5999999999999,-0.052785
559.8,-0.0505740000000001
560.0,-0.0491460000000001
560.1999999999998,-0.0470100000000002
560.3999999999999,-0.0458750000000001
560.5999999999999,-0.0466400000000002
560.8,-0.0476180000000001
561.0,-0.047633
561.1999999999998,-0.0477520000000002
561.3999999999999,-0.0477530000000001
561.5999999999999,-0.047851
561.8,-0.047069
562.0,-0.0489240000000001
562.1999999999998,-0.0495900000000002
562.3999999999999,-0.0516280000000002
562.5999999999999,-0.0531510000000001
562.8,-0.0543690000000001
563.0,-0.0528280000000001
563.1999999999998,-0.0529060000000001
563.3999999999999,-0.0515210000000001
563.5999999999999,-0.0506790000000001
563.8,-0.0501370000000001
564.0,-0.0507700000000002
564.1999999999998,-0.051784
564.3999999999999,-0.054793
564.5999999999999,-0.0572530000000002
564.8,-0.0576580000000002
565.0,-0.0566440000000001
565.1999999999998,-0.055387
565.3999999999999,-0.0537420000000001
565.5999999999999,-0.0508090000000001
565.8,-0.0510970000000001
566.0,-0.052399
566.1999999999998,-0.0521470000000001
566.3999999999999,-0.0527480000000002
566.5999999999999,-0.0540140000000002
566.8,-0.0545170000000001
567.0,-0.0541120000000001
567.1999999999998,-0.0565520000000001
567.3999999999999,-0.0580260000000001
567.5999999999999,-0.0611320000000001
567.8,-0.0616670000000001
568.0,-0.061722
568.1999999999998,-0.059147
568.3999999999999,-0.0582120000000001
568.5999999999999,-0.0551860000000001
568.8,-0.053109
569.0,-0.051851
569.1999999999998,-0.0530030000000001
569.3999999999999,-0.0521370000000001
569.5999999999999,-0.0521840000000002
569.8,-0.0535530000000001
570.0,-0.0550840000000001
570.1999999999998,-0.0550650000000001
570.3999999999999,-0.0538180000000001
570.5999999999999,-0.0527680000000001
570.8,-0.0505740000000001
571.0,-0.050067
571.1999999999998,-0.047954
571.3999999999999,-0.048383
571.5999999999999,-0.049989
571.8,-0.0525680000000001
572.0,-0.052861
572.1999999999998,-0.053938
572.3999999999999,-0.0531000000000001
572.5999999999999,-0.053471
572.8,-0.0532860000000001
572.9999999999998,-0.0540500000000001
573.1999999999998,-0.0545890000000002
573.3999999999999,-0.0553580000000002
573.5999999999999,-0.053487
573.8,-0.0506700000000002
573.9999999999998,-0.0468240000000002
574.1999999999998,-0.0455930000000002
574.3999999999999,-0.045077
574.5999999999999,-0.0456360000000002
574.8,-0.0495100000000001
574.9999999999998,-0.0528210000000002
575.1999999999998,-0.0560770000000001
575.3999999999999,-0.0587090000000001
575.5999999999999,-0.058124
575.8,-0.055892
575.9999999999998,-0.0558850000000001
576.1999999999998,-0.056178
576.3999999999999,-0.0561070000000001
576.5999999999999,-0.057039
576.8,-0.0566820000000001
576.9999999999998,-0.056982
577.1999999999998,-0.0544970000000002
577.3999999999999,-0.0523740000000001
577.5999999999999,-0.051258
577.8,-0.0517230000000001
577.9999999999998,-0.0506590000000002
578.1999999999998,-0.0504620000000002
578.3999999999999,-0.05034
578.5999999999999,-0.0506030000000001
578.8,-0.050739
578.9999999999998,-0.050982
579.1999999999998,-0.0512320000000001
579.3999999999999,-0.051258
579.5999999999999,-0.0503850000000001
579.8,-0.0487900000000001
579.9999999999998,-0.0481930000000001
580.1999999999998,-0.0480020000000001
580.3999999999999,-0.0467950000000001
580.5999999999999,-0.0470890000000001
580.8,-0.0481980000000001
580.9999999999998,-0.047538
581.1999999999998,-0.046548
581.3999999999999,-0.0478770000000001
581.5999999999999,-0.0497050000000001
581.8,-0.0503190000000002
581.9999999999998,-0.0518290000000001
582.1999999999998,-0.053465
582.3999999999999,-0.0548900000000001
582.5999999999999,-0.0562740000000001
582.8,-0.0584920000000002
582.9999999999998,-0.060038
583.1999999999998,-0.06261
583.3999999999999,-0.0648870000000001
583.5999999999999,-0.0639820000000002
583.8,-0.0607540000000002
583.9999999999998,-0.0593640000000001
584.1999999999998,-0.0572350000000001
584.3999999999999,-0.0543520000000001
584.5999999999999,-0.0531670000000001
584.8,-0.054486
584.9999999999998,-0.0551920000000001
585.1999999999998,-0.056108
585.3999999999999,-0.057031
585.5999999999999,-0.055935
585.8,-0.056872
585.9999999999998,-0.0568760000000001
586.1999999999998,-0.0549450000000002
586.3999999999999,-0.05393
586.5999999999999,-0.0560340000000001
586.8,-0.0567790000000001
586.9999999999998,-0.056451
587.1999999999998,-0.056154
587.3999999999999,-0.0551050000000001
587.5999999999999,-0.0527710000000001
587.8,-0.0505050000000002
587.9999999999998,-0.049557
588.1999999999998,-0.0487020000000002
588.3999999999999,-0.047859
588.5999999999999,-0.0481110000000002
588.8,-0.0493350000000001
588.9999999999998,-0.0514390000000002
589.1999999999998,-0.054831
589.3999999999999,-0.0572380000000001
589.5999999999999,-0.055706
589.8,-0.0534130000000001
589.9999999999998,-0.0502140000000002
590.1999999999998,-0.048032
590.3999999999999,-0.0461330000000002
590.5999999999999,-0.048186
590.8,-0.048156
590.9999999999998,-0.0501660000000001
591.1999999999998,-0.049935
591.3999999999999,-0.0502680000000002
591.5999999999999,-0.050742
591.8,-0.0528710000000001
591.9999999999998,-0.053541
592.1999999999998,-0.054461
592.3999999999999,-0.055762
592.5999999999999,-0.0560120000000001
592.8,-0.056556
592.9999999999998,-0.0566740000000001
593.1999999999998,-0.0561340000000001
593.3999999999999,-0.055104
593.5999999999999,-0.055309
593.8,-0.05438
593.9999999999998,-0.0542440000000001
594.1999999999998,-0.055922
594.3999999999999,-0.0573960000000002
594.5999999999999,-0.0567000000000001
594.8,-0.0554450000000001
594.9999999999998,-0.0540720000000001
595.1999999999998,-0.0527440000000001
595.3999999999999,-0.05177
595.5999999999999,-0.053306
595.8,-0.055814
595.9999999999998,-0.058208
596.1999999999998,-0.058615
596.3999999999999,-0.0614830000000001
596.5999999999999,-0.062051
596.8,-0.0619830000000001
596.9999999999998,-0.0613860000000001
597.1999999999998,-0.0635020000000001
597.3999999999999,-0.0614290000000001
597.5999999999999,-0.0575700000000001
597.8,-0.0538250000000002
597.9999999999998,-0.050923
598.1999999999998,-0.0497980000000002
