Time (s),Shift (nm)
0.0,0.0
0.1999999999999886,-0.0014319999999998
0.4000000000000341,-0.0031589999999999
0.6000000000000227,-0.0046249999999998
0.8000000000000114,-0.0046029999999999
1.0,-0.0049529999999999
1.1999999999999886,-0.0047379999999999
1.400000000000034,-0.002307
1.6000000000000227,0.0009419999999999
1.8000000000000114,0.0034609999999999
2.0,0.0038960000000001
2.1999999999999886,0.004051
2.400000000000034,0.0027969999999999
2.6000000000000227,0.0016329999999999
2.800000000000012,-0.000558
3.0,-0.000761
3.1999999999999886,0.0004349999999999
3.400000000000034,0.0019390000000001
3.6000000000000227,0.002547
3.8000000000000114,0.0046250000000001
4.0,0.0053670000000001
4.199999999999989,0.006345
4.400000000000034,0.0079599999999999
4.600000000000023,0.00824
4.800000000000011,0.006609
5.0,0.004804
5.199999999999989,0.0017409999999999
5.400000000000034,-0.0026669999999999
5.600000000000023,-0.0034719999999999
5.800000000000011,-0.003171
6.0,-0.0008889999999999
6.199999999999989,0.0015959999999999
6.400000000000034,0.003227
6.600000000000023,0.0022740000000001
6.800000000000011,0.0008399999999999
7.0,-0.002313
7.199999999999989,-0.0054
7.400000000000034,-0.00669
7.600000000000023,-0.0050889999999998
7.800000000000011,-0.0021539999999999
8.0,-0.000674
8.199999999999989,-0.0013369999999999
8.400000000000034,-0.0024049999999999
8.600000000000023,-0.0041459999999999
8.800000000000011,-0.006018
9.0,-0.0044999999999999
9.199999999999989,-0.0013079999999998
9.400000000000034,0.0024679999999999
9.600000000000025,0.0049049999999999
9.800000000000011,0.005362
10.0,0.0042439999999999
10.199999999999989,0.0022200000000001
10.400000000000034,-0.000839
10.600000000000025,-0.0036709999999999
10.800000000000011,-0.0061679999999999
11.0,-0.007325
11.199999999999989,-0.0071229999999999
11.400000000000034,-0.0057549999999999
11.600000000000025,-0.0037689999999999
11.800000000000011,-0.0014609999999999
12.0,-0.00116
12.199999999999989,-0.0004379999999999
12.400000000000034,0.00014
12.600000000000025,-0.0003169999999999
12.800000000000011,0.0004239999999999
13.0,0.0022729999999999
13.199999999999989,0.002529
13.400000000000034,0.0010970000000001
13.600000000000025,-0.0012159999999998
13.800000000000011,-0.0026539999999999
14.0,-0.0033719999999999
14.199999999999989,-0.002696
14.400000000000034,-0.000798
14.600000000000025,-9.799999999993148e-05
14.800000000000011,-0.002361
15.0,-0.0051309999999999
15.199999999999989,-0.0076929999999999
15.400000000000034,-0.010369
15.600000000000025,-0.0123039999999998
15.800000000000011,-0.010191
16.0,-0.0060029999999999
16.19999999999999,-0.0031099999999999
16.400000000000034,-0.0011129999999999
16.600000000000023,0.001856
16.80000000000001,0.001427
17.0,-0.0022379999999999
17.19999999999999,-0.0052129999999999
17.400000000000034,-0.00526
17.600000000000023,-0.004037
17.80000000000001,-0.0019329999999999
18.0,0.0006079999999999
18.19999999999999,0.0024219999999999
18.400000000000038,0.0031209999999999
18.600000000000023,0.0019059999999999
18.80000000000001,0.000202
19.0,-0.0018029999999999
19.19999999999999,-0.0012449999999999
19.400000000000038,-0.0013009999999999
19.600000000000023,0.000204
19.80000000000001,0.0004090000000001
20.0,0.0009000000000001
20.19999999999999,0.000256
20.400000000000038,-9.1999999999981e-05
20.600000000000023,4.300000000001525e-05
20.80000000000001,0.000618
21.0,-0.0002169999999999
21.19999999999999,-0.0031049999999999
21.400000000000038,-0.00648
21.600000000000023,-0.010861
21.80000000000001,-0.013274
22.0,-0.0130559999999999
22.19999999999999,-0.011951
22.400000000000038,-0.0097609999999999
22.600000000000023,-0.0061469999999999
22.80000000000001,-0.0015589999999998
23.0,0.0031579999999999
23.19999999999999,0.005883
23.400000000000038,0.006285
23.600000000000023,0.002693
23.80000000000001,-7.00000000000145e-05
24.0,-0.0040059999999999
24.19999999999999,-0.004804
24.400000000000038,-0.0049049999999999
24.600000000000023,-0.0002849999999998
24.80000000000001,0.00285
25.0,0.0057910000000001
25.19999999999999,0.0060789999999999
25.400000000000038,0.0059500000000001
25.600000000000023,0.003767
25.80000000000001,0.001217
26.0,-0.0022489999999999
26.19999999999999,-0.003263
26.400000000000038,-0.0032719999999999
26.600000000000023,-0.0034389999999999
26.80000000000001,-0.003165
27.0,-0.000761
27.19999999999999,0.0014719999999999
27.400000000000038,0.0032719999999999
27.600000000000023,0.003851
27.80000000000001,0.003268
28.0,0.0022390000000001
28.19999999999999,-7.599999999996498e-05
28.400000000000038,-0.0033939999999998
28.600000000000023,-0.004866
28.80000000000001,-0.005813
29.0,-0.006545
29.19999999999999,-0.0078979999999999
29.400000000000038,-0.0069529999999999
29.600000000000023,-0.00723
29.80000000000001,-0.0061729999999999
30.0,-0.0060949999999999
30.19999999999999,-0.0054229999999999
30.400000000000038,-0.0061489999999999
30.600000000000023,-0.004985
30.80000000000001,-0.0048809999999999
31.0,-0.0053429999999998
31.19999999999999,-0.0045949999999999
31.400000000000038,-0.0021739999999998
31.600000000000023,-2.900000000005676e-05
31.80000000000001,0.0007239999999999
32.0,0.002383
32.19999999999999,0.003103
32.400000000000034,0.0031890000000001
32.60000000000002,0.0005600000000001
32.80000000000001,-0.0025189999999999
33.0,-0.0064409999999999
33.19999999999999,-0.0083929999999998
33.400000000000034,-0.0096439999999999
33.60000000000002,-0.008923
33.80000000000001,-0.0064889999999999
34.0,-0.0037369999999998
34.19999999999999,-0.0019299999999999
34.400000000000034,-0.003028
34.60000000000002,-0.0048099999999999
34.80000000000001,-0.0066559999999999
35.0,-0.008251
35.19999999999999,-0.0098009999999999
35.400000000000034,-0.0100469999999999
35.60000000000002,-0.0091719999999999
35.80000000000001,-0.0074829999999999
36.0,-0.0059149999999998
36.19999999999999,-0.004763
36.400000000000034,-0.004771
36.60000000000002,-0.0057359999999999
36.80000000000001,-0.005751
37.0,-0.0043359999999998
37.19999999999999,-0.0044049999999999
37.400000000000034,-0.0048969999999999
37.60000000000002,-0.0044519999999999
37.80000000000001,-0.0056329999999999
38.0,-0.0072889999999998
38.19999999999999,-0.0088029999999998
38.400000000000034,-0.0096089999999999
38.60000000000002,-0.008904
38.80000000000001,-0.007754
39.0,-0.0056829999999998
39.19999999999999,-0.0022759999999999
39.400000000000034,0.0014629999999999
39.60000000000002,0.0015290000000001
39.80000000000001,0.00076
40.0,-0.001487
40.19999999999999,-0.004564
40.400000000000034,-0.0071769999999999
40.60000000000002,-0.0068589999999999
40.80000000000001,-0.0045429999999999
41.0,-0.0025249999999998
41.19999999999999,0.0001079999999999
41.400000000000034,0.002688
41.60000000000002,0.0027639999999999
41.80000000000001,0.000755
42.0,0.0001999999999999
42.19999999999999,-0.0008729999999999
42.400000000000034,-0.001033
42.60000000000002,-0.0023919999999999
42.80000000000001,-0.0051319999999999
43.0,-0.0096609999999999
43.19999999999999,-0.0133689999999999
43.400000000000034,-0.017042
43.60000000000002,-0.0159989999999998
43.80000000000001,-0.015077
44.0,-0.0129559999999999
44.19999999999999,-0.0100299999999999
44.400000000000034,-0.0078149999999999
44.60000000000002,-0.0075279999999999
44.80000000000001,-0.0069239999999999
45.0,-0.0070179999999999
45.19999999999999,-0.0065549999999998
45.400000000000034,-0.006483
45.60000000000002,-0.006032
45.80000000000001,-0.0043999999999999
46.0,-0.0032349999999998
46.19999999999999,-0.003541
46.400000000000034,-0.0017909999999998
46.60000000000002,-0.0017099999999998
46.80000000000001,-0.0021739999999998
47.0,-0.0015639999999998
47.19999999999999,-0.0008099999999999
47.400000000000034,-0.001921
47.60000000000002,-0.0017909999999998
47.80000000000001,-0.0012269999999998
48.0,-0.0005479999999999
48.19999999999999,-0.001468
48.400000000000034,-0.0028729999999999
48.60000000000002,-0.0048729999999999
48.80000000000001,-0.006504
49.0,-0.0063039999999998
49.19999999999999,-0.005319
49.400000000000034,-0.0045109999999999
49.60000000000002,-0.0045329999999998
49.80000000000001,-0.005036
50.0,-0.0058759999999999
50.19999999999999,-0.003962
50.400000000000034,-0.001708
50.60000000000002,0.000598
50.80000000000001,0.0041059999999999
51.0,0.003978
51.19999999999999,0.001317
51.400000000000034,-0.0015069999999999
51.60000000000002,-0.002628
51.80000000000001,-0.0030499999999999
52.0,-0.001892
52.19999999999999,0.000896
52.400000000000034,0.003549
52.60000000000002,0.003446
52.80000000000001,0.001997
53.0,0.000321
53.19999999999999,-0.0025089999999998
53.400000000000034,-0.0049939999999999
53.60000000000002,-0.0050829999999999
53.80000000000001,-0.00407
54.0,-0.0016529999999999
54.19999999999999,-0.000407
54.400000000000034,0.000598
54.60000000000002,0.0005490000000001
54.80000000000001,-0.0012289999999999
55.0,-0.0031749999999999
55.19999999999999,-0.0034939999999998
55.400000000000034,-0.0047459999999999
55.60000000000002,-0.0068049999999999
55.80000000000001,-0.0074069999999999
56.0,-0.0075169999999999
56.19999999999999,-0.006758
56.400000000000034,-0.0056769999999999
56.60000000000002,-0.0027319999999999
56.80000000000001,-0.0022599999999999
57.0,-0.002574
57.19999999999999,-0.0047939999999999
57.400000000000034,-0.006148
57.60000000000002,-0.00783
57.80000000000001,-0.00753
58.0,-0.0072639999999999
58.19999999999999,-0.0087619999999999
58.400000000000034,-0.010658
58.60000000000002,-0.0121419999999998
58.80000000000001,-0.0129949999999998
59.0,-0.0150269999999999
59.19999999999999,-0.0153289999999999
59.400000000000034,-0.0150699999999999
59.60000000000002,-0.01489
59.80000000000001,-0.014628
60.0,-0.0138139999999999
60.19999999999999,-0.011271
60.400000000000034,-0.006461
60.60000000000002,-0.0020359999999999
60.80000000000001,-0.001174
61.0,-8.60000000000305e-05
61.19999999999999,-0.000394
61.400000000000034,-0.0044539999999999
61.60000000000002,-0.008332
61.80000000000001,-0.0085319999999999
62.00000000000006,-0.01014
62.19999999999999,-0.0122119999999998
62.400000000000034,-0.01323
62.599999999999966,-0.0129049999999999
62.80000000000001,-0.0142979999999999
63.00000000000006,-0.0133079999999998
63.19999999999999,-0.0121959999999998
63.400000000000034,-0.0113319999999998
63.599999999999966,-0.011862
63.80000000000001,-0.012189
64.00000000000006,-0.013503
64.19999999999999,-0.0134849999999999
64.40000000000003,-0.013398
64.59999999999997,-0.0134419999999999
64.80000000000001,-0.010987
65.00000000000006,-0.010278
65.19999999999999,-0.008942
65.40000000000003,-0.0074019999999999
65.59999999999997,-0.006067
65.80000000000001,-0.0065299999999999
66.00000000000006,-0.005093
66.19999999999999,-0.0047459999999999
66.40000000000003,-0.0048299999999998
66.59999999999997,-0.004024
66.80000000000001,-0.002971
67.00000000000006,-0.0025429999999999
67.19999999999999,-0.002731
67.40000000000003,-0.003322
67.59999999999997,-0.0049749999999999
67.80000000000001,-0.0076419999999999
68.00000000000006,-0.0111769999999999
68.19999999999999,-0.0124899999999998
68.40000000000003,-0.0115749999999998
68.59999999999997,-0.0104739999999998
68.80000000000001,-0.0087109999999999
69.00000000000006,-0.0057339999999999
69.19999999999999,-0.0044509999999999
69.40000000000003,-0.004631
69.59999999999997,-0.0045539999999999
69.80000000000001,-0.0053069999999999
70.00000000000006,-0.0064779999999999
70.19999999999999,-0.0086979999999998
70.40000000000003,-0.007983
70.59999999999997,-0.006116
70.80000000000001,-0.003452
71.00000000000006,-0.001875
71.19999999999999,0.0004619999999999
71.40000000000003,0.002027
71.59999999999997,0.0003820000000001
71.80000000000001,-0.0036
72.00000000000006,-0.0058279999999999
72.19999999999999,-0.0078059999999999
72.40000000000003,-0.0095849999999999
72.59999999999997,-0.009055
72.80000000000001,-0.0049989999999999
73.00000000000006,-0.002504
73.19999999999999,-0.0028099999999999
73.40000000000003,-0.005854
73.59999999999997,-0.008372
73.80000000000001,-0.012874
74.00000000000006,-0.0146779999999999
74.19999999999999,-0.012601
74.40000000000003,-0.0101789999999999
74.59999999999997,-0.009095
74.80000000000001,-0.007827
75.00000000000006,-0.0086859999999999
75.19999999999999,-0.0105269999999999
75.40000000000003,-0.0119009999999999
75.59999999999997,-0.011517
75.80000000000001,-0.010396
76.00000000000006,-0.0089339999999999
76.19999999999999,-0.009265
76.40000000000003,-0.0089239999999999
76.59999999999997,-0.0097329999999999
76.80000000000001,-0.0116639999999998
77.00000000000006,-0.010583
77.19999999999999,-0.0084279999999998
77.40000000000003,-0.007643
77.59999999999997,-0.0081269999999999
77.80000000000001,-0.008345
78.00000000000006,-0.010634
78.19999999999999,-0.012027
78.40000000000003,-0.011457
78.59999999999997,-0.0106459999999999
78.80000000000001,-0.0090029999999998
79.00000000000006,-0.0080229999999998
79.19999999999999,-0.007392
79.40000000000003,-0.0077909999999998
79.59999999999997,-0.0067619999999999
79.80000000000001,-0.0075719999999999
80.00000000000006,-0.0085789999999998
80.19999999999999,-0.0115469999999999
80.40000000000003,-0.015328
80.59999999999997,-0.019627
80.80000000000001,-0.020413
81.00000000000006,-0.0201109999999999
81.19999999999999,-0.0178289999999998
81.40000000000003,-0.015598
81.59999999999997,-0.0108839999999998
81.80000000000001,-0.0093799999999999
82.00000000000006,-0.0094689999999999
82.19999999999999,-0.0107349999999999
82.40000000000003,-0.011686
82.59999999999997,-0.013266
82.80000000000001,-0.0136719999999999
83.00000000000006,-0.0127539999999999
83.19999999999999,-0.01116
83.40000000000003,-0.0091259999999999
83.59999999999997,-0.009082
83.80000000000001,-0.0099359999999999
84.00000000000006,-0.011228
84.19999999999999,-0.0117629999999999
84.40000000000003,-0.011805
84.59999999999997,-0.0103659999999998
84.80000000000001,-0.0069179999999999
85.00000000000006,-0.00557
85.19999999999999,-0.004672
85.40000000000003,-0.0042219999999999
85.59999999999997,-0.003538
85.80000000000001,-0.0056799999999999
86.00000000000006,-0.0060599999999999
86.19999999999999,-0.008882
86.40000000000003,-0.010971
86.59999999999997,-0.013309
86.80000000000001,-0.0123889999999999
87.00000000000006,-0.0105839999999999
87.19999999999999,-0.005533
87.40000000000003,0.0008669999999999
87.59999999999997,0.0047490000000001
87.80000000000001,0.0053279999999999
88.00000000000006,0.0029890000000001
88.19999999999999,-0.000604
88.40000000000003,-0.0052049999999999
88.59999999999997,-0.004987
88.80000000000001,-0.004704
89.00000000000006,-0.002113
89.19999999999999,-0.00062
89.40000000000003,0.000123
89.59999999999997,-0.0041269999999999
89.80000000000001,-0.0062979999999999
90.00000000000006,-0.007808
90.2,-0.0060569999999999
90.40000000000003,-0.005773
90.59999999999997,-0.0041379999999999
90.8,-0.005128
91.00000000000006,-0.005457
91.2,-0.006682
91.40000000000003,-0.007573
91.59999999999997,-0.0093849999999999
91.8,-0.008005
92.00000000000006,-0.007247
92.2,-0.0071579999999999
92.40000000000003,-0.0079609999999998
92.59999999999997,-0.0080879999999998
92.8,-0.0087649999999999
93.00000000000006,-0.008574
93.2,-0.0087429999999999
93.40000000000003,-0.007781
93.59999999999997,-0.0082659999999998
93.8,-0.0101339999999998
94.00000000000006,-0.0128289999999999
94.2,-0.0140009999999999
94.40000000000003,-0.011368
94.59999999999997,-0.0086289999999999
94.8,-0.0052939999999999
95.00000000000006,-0.0033689999999999
95.2,-0.0036129999999998
95.40000000000003,-0.006718
95.59999999999997,-0.0081839999999999
95.8,-0.0082679999999999
96.00000000000006,-0.007176
96.2,-0.005651
96.40000000000003,-0.0041189999999999
96.59999999999997,-0.0021729999999999
96.8,-0.0032609999999999
97.00000000000006,-0.0039549999999999
97.2,-0.005951
97.40000000000003,-0.008971
97.59999999999997,-0.012761
97.8,-0.0134549999999999
98.00000000000006,-0.0141109999999999
98.2,-0.0123789999999999
98.40000000000003,-0.0104979999999998
98.59999999999997,-0.0090999999999998
98.8,-0.010707
99.00000000000006,-0.0127159999999999
99.2,-0.0144009999999998
99.40000000000003,-0.0146729999999999
99.59999999999997,-0.013921
99.8,-0.0115509999999998
100.00000000000006,-0.009643
100.2,-0.0067989999999999
100.40000000000003,-0.00563
100.59999999999997,-0.0057439999999999
100.8,-0.0074469999999999
101.00000000000006,-0.00834
101.2,-0.0101109999999999
101.40000000000003,-0.01041
101.59999999999997,-0.0092129999999999
101.8,-0.0066019999999999
102.00000000000006,-0.0062159999999999
102.2,-0.0069099999999999
102.40000000000003,-0.0082889999999999
102.59999999999997,-0.010318
102.8,-0.0110349999999999
103.00000000000006,-0.010634
103.2,-0.0101929999999998
103.40000000000003,-0.0095309999999999
103.59999999999997,-0.008329
103.8,-0.0075479999999998
104.00000000000006,-0.0063739999999998
104.2,-0.007446
104.40000000000003,-0.0090319999999999
104.59999999999997,-0.012062
104.8,-0.0146839999999999
105.00000000000006,-0.0174309999999999
105.2,-0.0161119999999999
105.40000000000003,-0.015106
105.59999999999997,-0.0123389999999998
105.8,-0.011014
106.00000000000006,-0.0101009999999999
106.2,-0.0119229999999999
106.40000000000003,-0.0118359999999999
106.59999999999997,-0.0113019999999999
106.8,-0.009565
107.00000000000006,-0.007932
107.2,-0.005192
107.40000000000003,-0.0046329999999998
107.59999999999997,-0.00635
107.8,-0.0074119999999999
108.00000000000006,-0.007965
108.2,-0.0079279999999999
108.40000000000003,-0.008537
108.59999999999997,-0.009727
108.8,-0.0120279999999999
109.00000000000006,-0.0139099999999998
109.2,-0.016332
109.40000000000003,-0.017638
109.59999999999997,-0.0163849999999998
109.8,-0.0147019999999999
110.00000000000006,-0.0127599999999998
110.2,-0.0114909999999999
110.40000000000003,-0.009541
110.59999999999997,-0.008434
110.8,-0.007641
111.00000000000006,-0.0076209999999998
111.2,-0.0076149999999999
111.40000000000003,-0.008145
111.59999999999997,-0.008566
111.8,-0.0098849999999999
112.00000000000006,-0.010577
112.2,-0.0117119999999999
112.40000000000003,-0.012097
112.59999999999997,-0.0119839999999999
112.8,-0.009465
113.00000000000006,-0.0087789999999998
113.2,-0.008852
113.40000000000003,-0.0107519999999998
113.59999999999997,-0.011924
113.8,-0.013252
114.00000000000006,-0.0141059999999999
114.2,-0.0128209999999999
114.40000000000003,-0.0111719999999999
114.59999999999997,-0.0136479999999998
114.8,-0.0174989999999999
115.00000000000006,-0.0192269999999998
115.2,-0.0207169999999998
115.40000000000003,-0.0211099999999999
115.59999999999997,-0.0178989999999998
115.8,-0.014575
116.00000000000006,-0.0125489999999999
116.2,-0.0109729999999999
116.40000000000003,-0.0100199999999999
116.59999999999997,-0.009373
116.8,-0.0097639999999998
117.00000000000006,-0.011023
117.2,-0.0107429999999999
117.40000000000003,-0.010218
117.59999999999997,-0.0099489999999999
117.8,-0.0113579999999999
118.00000000000006,-0.011063
118.2,-0.0135979999999999
118.40000000000003,-0.0158689999999999
118.59999999999997,-0.0187439999999998
118.8,-0.0179529999999998
119.00000000000006,-0.0176099999999999
119.2,-0.0160599999999999
119.40000000000003,-0.0165199999999998
119.59999999999997,-0.0160769999999998
119.8,-0.016747
120.00000000000006,-0.017185
120.2,-0.0163389999999998
120.40000000000003,-0.01244
120.59999999999997,-0.0093829999999999
120.8,-0.0073149999999999
121.00000000000006,-0.0064779999999999
121.2,-0.0083619999999999
121.40000000000003,-0.0117519999999999
121.59999999999997,-0.012685
121.8,-0.0133289999999999
122.00000000000006,-0.0126129999999999
122.2,-0.0108379999999999
122.40000000000003,-0.0082679999999999
122.59999999999997,-0.008612
122.8,-0.010167
123.00000000000006,-0.0127379999999999
123.2,-0.0154449999999999
123.40000000000003,-0.01757
123.59999999999997,-0.018564
123.8,-0.0182059999999999
124.00000000000006,-0.019533
124.2,-0.0194829999999999
124.40000000000003,-0.0200259999999998
124.59999999999997,-0.02037
124.8,-0.02119
125.00000000000006,-0.0187479999999999
125.2,-0.016758
125.40000000000003,-0.0156859999999998
125.59999999999997,-0.014005
125.8,-0.0125349999999999
126.00000000000006,-0.0135499999999999
126.2,-0.0162839999999999
126.40000000000003,-0.0180739999999999
126.59999999999997,-0.0202379999999999
126.8,-0.020618
127.00000000000006,-0.0199499999999999
127.2,-0.019171
127.40000000000003,-0.016404
127.59999999999997,-0.015422
127.8,-0.017751
128.00000000000006,-0.019689
128.2,-0.0163029999999999
128.40000000000003,-0.0142229999999998
128.59999999999997,-0.0105049999999999
128.8,-0.006866
129.00000000000006,-0.005133
129.2,-0.0074399999999998
129.40000000000003,-0.010388
129.59999999999997,-0.0131019999999999
129.8,-0.0137559999999998
130.00000000000006,-0.0126749999999999
130.2,-0.0120249999999999
130.40000000000003,-0.012118
130.59999999999997,-0.012321
130.8,-0.0130509999999999
131.00000000000006,-0.0158199999999999
131.2,-0.016817
131.40000000000003,-0.0160489999999999
131.59999999999997,-0.0143999999999999
131.8,-0.014342
132.00000000000006,-0.0135719999999999
132.2,-0.014086
132.40000000000003,-0.0138739999999999
132.59999999999997,-0.015166
132.8,-0.014383
133.00000000000006,-0.0134209999999999
133.2,-0.0123219999999999
133.40000000000003,-0.0135939999999998
133.59999999999997,-0.0147189999999999
133.8,-0.0145899999999998
134.00000000000006,-0.012278
134.2,-0.011498
134.40000000000003,-0.011211
134.59999999999997,-0.0124349999999999
134.8,-0.013006
135.00000000000006,-0.0143699999999999
135.2,-0.013924
135.40000000000003,-0.013579
135.59999999999997,-0.0127379999999999
135.8,-0.013392
136.00000000000006,-0.013543
136.2,-0.014915
136.40000000000003,-0.0168949999999998
136.59999999999997,-0.0174369999999999
136.8,-0.0177559999999998
137.00000000000006,-0.018189
137.2,-0.018596
137.40000000000003,-0.01651
137.59999999999997,-0.0153739999999999
137.8,-0.0149129999999999
138.00000000000006,-0.015009
138.2,-0.0152159999999998
138.40000000000003,-0.016569
138.59999999999997,-0.0166479999999999
138.8,-0.0165819999999998
139.00000000000006,-0.0178119999999999
139.2,-0.018931
139.40000000000003,-0.0201249999999999
139.59999999999997,-0.0226489999999999
139.8,-0.0224059999999999
140.00000000000006,-0.020769
140.2,-0.018407
140.40000000000003,-0.0163329999999999
140.59999999999997,-0.013727
140.8,-0.014089
141.00000000000006,-0.014715
141.2,-0.0143429999999999
141.40000000000003,-0.0136129999999998
141.59999999999997,-0.013298
141.8,-0.0128989999999999
142.00000000000006,-0.014853
142.2,-0.0172369999999999
142.40000000000003,-0.018507
142.59999999999997,-0.017387
142.8,-0.0161339999999998
143.00000000000006,-0.0120739999999999
143.2,-0.0102659999999998
143.40000000000003,-0.0097229999999999
143.59999999999997,-0.0116229999999999
143.8,-0.0115929999999999
144.00000000000006,-0.012334
144.2,-0.012296
144.40000000000003,-0.010996
144.59999999999997,-0.009454
144.8,-0.0086379999999999
145.00000000000006,-0.008412
145.2,-0.00801
145.40000000000003,-0.008693
145.59999999999997,-0.0095849999999999
145.8,-0.0116469999999999
146.00000000000006,-0.0132909999999999
146.2,-0.0141949999999999
146.40000000000003,-0.0144059999999999
146.59999999999997,-0.012877
146.8,-0.0114419999999999
147.00000000000006,-0.0086729999999999
147.2,-0.007292
147.40000000000003,-0.0071019999999999
147.59999999999997,-0.0088939999999999
147.8,-0.0110669999999999
148.00000000000006,-0.0129989999999999
148.2,-0.012539
148.40000000000003,-0.0133479999999999
148.59999999999997,-0.0157659999999999
148.8,-0.016118
149.00000000000006,-0.0179519999999999
149.2,-0.0210829999999999
149.40000000000003,-0.022658
149.59999999999997,-0.0221069999999998
149.8,-0.0227809999999999
150.00000000000006,-0.0218119999999999
150.2,-0.0212509999999999
150.40000000000003,-0.0204139999999999
150.59999999999997,-0.019214
150.8,-0.0181069999999998
151.00000000000006,-0.018186
151.2,-0.0175229999999999
151.40000000000003,-0.0176399999999998
151.59999999999997,-0.019959
151.8,-0.022507
152.00000000000006,-0.0243569999999999
152.2,-0.026167
152.40000000000003,-0.025536
152.59999999999997,-0.0225779999999999
152.8,-0.0202709999999999
153.00000000000006,-0.017897
153.2,-0.016764
153.40000000000003,-0.0180629999999999
153.59999999999997,-0.019069
153.8,-0.0176049999999998
154.00000000000006,-0.017549
154.2,-0.0185619999999999
154.40000000000003,-0.018529
154.59999999999997,-0.018297
154.8,-0.020294
155.00000000000006,-0.023336
155.2,-0.023517
155.40000000000003,-0.021886
155.59999999999997,-0.02071
155.8,-0.0195929999999999
156.00000000000006,-0.0157899999999999
156.2,-0.0137789999999999
156.40000000000003,-0.015468
156.59999999999997,-0.017379
156.8,-0.018672
157.00000000000006,-0.0214589999999998
157.2,-0.0225189999999999
157.40000000000003,-0.0216609999999999
157.59999999999997,-0.0213529999999999
157.8,-0.019212
158.00000000000006,-0.0166779999999999
158.2,-0.0149809999999999
158.40000000000003,-0.014337
158.59999999999997,-0.0152499999999999
158.8,-0.016432
159.00000000000006,-0.016561
159.2,-0.0159739999999999
159.40000000000003,-0.0160709999999999
159.59999999999997,-0.0153239999999998
159.8,-0.015489
160.00000000000006,-0.015908
160.2,-0.0171259999999999
160.40000000000003,-0.016356
160.59999999999997,-0.015265
160.8,-0.0155959999999999
161.00000000000006,-0.016472
161.2,-0.0169129999999999
161.40000000000003,-0.017832
161.59999999999997,-0.018232
161.8,-0.0181329999999999
162.00000000000006,-0.018175
162.2,-0.0192999999999998
162.40000000000003,-0.02078
162.59999999999997,-0.022332
162.8,-0.0236419999999999
163.00000000000006,-0.0240629999999999
163.2,-0.022027
163.40000000000003,-0.0186889999999999
163.59999999999997,-0.0144779999999999
163.8,-0.0117069999999999
164.00000000000006,-0.010831
164.2,-0.0117329999999999
164.40000000000003,-0.0137149999999999
164.59999999999997,-0.016456
164.8,-0.0179689999999999
165.00000000000006,-0.018569
165.2,-0.0179359999999999
165.40000000000003,-0.016426
165.59999999999997,-0.0146709999999998
165.8,-0.014404
166.00000000000006,-0.012893
166.2,-0.0150649999999998
166.40000000000003,-0.0195429999999998
166.59999999999997,-0.0231729999999998
166.8,-0.0235039999999999
167.00000000000006,-0.0237099999999998
167.2,-0.0240989999999998
167.40000000000003,-0.023535
167.59999999999997,-0.023457
167.8,-0.0252999999999998
168.00000000000006,-0.0273189999999998
168.2,-0.0253859999999999
168.40000000000003,-0.0204549999999998
168.59999999999997,-0.015773
168.8,-0.012817
169.00000000000006,-0.011427
169.2,-0.010858
169.40000000000003,-0.0142329999999999
169.59999999999997,-0.0179879999999998
169.8,-0.019341
170.00000000000006,-0.0208139999999998
170.2,-0.0217899999999999
170.40000000000003,-0.0210529999999999
170.59999999999997,-0.019149
170.8,-0.016774
171.00000000000006,-0.0118909999999998
171.2,-0.0084219999999999
171.40000000000003,-0.007398
171.59999999999997,-0.008013
171.8,-0.010585
172.00000000000006,-0.012413
172.2,-0.0149939999999999
172.40000000000003,-0.0142809999999999
172.59999999999997,-0.0139309999999999
172.8,-0.012577
173.00000000000006,-0.014655
173.2,-0.0146859999999999
173.40000000000003,-0.017438
173.59999999999997,-0.017943
173.8,-0.0197499999999999
174.00000000000006,-0.0207029999999999
174.2,-0.0216659999999999
174.40000000000003,-0.019643
174.59999999999997,-0.0189699999999999
174.8,-0.0169219999999998
175.00000000000006,-0.0153879999999999
175.2,-0.015395
175.40000000000003,-0.01617
175.59999999999997,-0.015117
175.8,-0.013387
176.00000000000006,-0.011465
176.2,-0.0092459999999998
176.40000000000003,-0.008615
176.59999999999997,-0.010888
176.8,-0.0139339999999998
177.00000000000006,-0.0167109999999999
177.2,-0.0196879999999999
177.40000000000003,-0.0221119999999999
177.59999999999997,-0.0212779999999999
177.8,-0.0203519999999999
178.00000000000006,-0.0186649999999999
178.2,-0.0171419999999999
178.40000000000003,-0.015203
178.59999999999997,-0.0156689999999999
178.8,-0.0157749999999998
179.00000000000006,-0.017068
179.2,-0.017479
179.40000000000003,-0.0171269999999998
179.59999999999997,-0.015565
179.8,-0.0148719999999999
180.00000000000006,-0.013449
180.2,-0.0112559999999999
180.40000000000003,-0.009708
180.6,-0.010842
180.8,-0.0126359999999998
181.00000000000009,-0.0152269999999998
181.2,-0.016955
181.40000000000003,-0.0191289999999999
181.6,-0.017624
181.8,-0.0157989999999998
182.00000000000009,-0.014372
182.2,-0.015719
182.40000000000003,-0.016259
182.6,-0.0183709999999999
182.8,-0.0196
183.00000000000009,-0.020213
183.2,-0.0201759999999999
183.40000000000003,-0.021203
183.6,-0.021716
183.8,-0.0219359999999999
184.00000000000009,-0.0220299999999999
184.2,-0.0203059999999999
184.40000000000003,-0.0194199999999999
184.6,-0.0190589999999999
184.8,-0.0193389999999999
185.00000000000009,-0.019069
185.2,-0.019266
185.40000000000003,-0.0180789999999999
185.6,-0.0172229999999999
185.8,-0.017266
186.00000000000009,-0.0178579999999999
186.2,-0.0189949999999998
186.40000000000003,-0.0196979999999999
186.6,-0.0199219999999999
186.8,-0.0195239999999998
187.00000000000009,-0.0196849999999999
187.2,-0.01879
187.40000000000003,-0.0165329999999999
187.6,-0.0147049999999999
187.8,-0.0122519999999999
188.00000000000009,-0.010736
188.2,-0.0111399999999999
188.40000000000003,-0.0107329999999998
188.6,-0.0110319999999999
188.8,-0.0127519999999998
189.00000000000009,-0.0150189999999998
189.2,-0.0153719999999999
189.40000000000003,-0.0186219999999999
189.6,-0.0205819999999998
189.8,-0.0209429999999999
190.00000000000009,-0.0187939999999999
190.2,-0.0178989999999998
190.40000000000003,-0.0173579999999999
190.6,-0.017284
190.8,-0.016763
191.00000000000009,-0.0158899999999999
191.2,-0.0162039999999998
191.40000000000003,-0.0155069999999999
191.6,-0.0155319999999998
191.8,-0.0174879999999999
192.00000000000009,-0.021414
192.2,-0.0233859999999999
192.40000000000003,-0.0249809999999999
192.6,-0.0251069999999999
192.8,-0.024073
193.00000000000009,-0.021894
193.2,-0.0202959999999998
193.40000000000003,-0.0205859999999999
193.6,-0.022423
193.8,-0.0224619999999999
194.00000000000009,-0.0224549999999998
194.2,-0.0229589999999999
194.40000000000003,-0.022081
194.6,-0.0200119999999999
194.8,-0.0183439999999999
195.00000000000009,-0.017897
195.2,-0.0177099999999998
195.40000000000003,-0.016634
195.6,-0.0162869999999999
195.8,-0.017732
196.00000000000009,-0.017741
196.2,-0.0166239999999999
196.40000000000003,-0.016523
196.6,-0.0162919999999999
196.8,-0.016823
197.00000000000009,-0.019336
197.2,-0.0202789999999999
197.40000000000003,-0.0196849999999999
197.6,-0.019112
197.8,-0.017662
198.00000000000009,-0.012696
198.2,-0.0106329999999998
198.40000000000003,-0.0093509999999998
198.6,-0.0096579999999999
198.8,-0.0100139999999999
199.00000000000009,-0.013241
199.2,-0.0164549999999998
199.40000000000003,-0.0208409999999998
199.6,-0.022952
199.8,-0.0240959999999998
200.00000000000009,-0.0228569999999999
200.2,-0.0208079999999999
200.40000000000003,-0.0207399999999999
200.6,-0.0212109999999998
200.8,-0.02088
201.00000000000009,-0.0220419999999998
201.2,-0.024375
201.40000000000003,-0.0235499999999999
201.6,-0.02245
201.8,-0.022591
202.00000000000009,-0.0237519999999999
202.2,-0.0237629999999999
202.40000000000003,-0.023838
202.6,-0.024496
202.8,-0.0254049999999999
203.00000000000009,-0.0242649999999999
203.2,-0.021433
203.40000000000003,-0.018737
203.6,-0.0165109999999999
203.8,-0.0164109999999999
204.00000000000009,-0.01532
204.2,-0.018064
204.40000000000003,-0.019074
204.6,-0.0197069999999999
204.8,-0.0180629999999999
205.00000000000009,-0.0192239999999999
205.2,-0.018699
205.40000000000003,-0.017816
205.6,-0.015265
205.8,-0.0140359999999999
206.00000000000009,-0.0128399999999999
206.2,-0.0134689999999999
206.40000000000003,-0.0157129999999998
206.6,-0.019438
206.8,-0.0221609999999998
207.00000000000009,-0.0236369999999999
207.2,-0.022942
207.40000000000003,-0.0229909999999999
207.6,-0.022399
207.8,-0.0196019999999998
208.00000000000009,-0.016264
208.2,-0.0131989999999999
208.40000000000003,-0.0106679999999999
208.6,-0.0099419999999998
208.8,-0.0118869999999999
209.00000000000009,-0.01593
209.2,-0.0196279999999999
209.40000000000003,-0.0228599999999998
209.6,-0.024629
209.8,-0.0253669999999999
210.00000000000009,-0.0255969999999998
210.2,-0.0253829999999999
210.40000000000003,-0.0249409999999998
210.6,-0.023112
210.8,-0.021819
211.00000000000009,-0.0196749999999998
211.2,-0.0184519999999999
211.40000000000003,-0.0182929999999998
211.6,-0.0198739999999999
211.8,-0.0208969999999999
212.00000000000009,-0.0204299999999999
212.2,-0.0185469999999998
212.40000000000003,-0.0179819999999999
212.6,-0.019295
212.8,-0.02038
213.00000000000009,-0.0225569999999999
213.2,-0.02566
213.40000000000003,-0.025868
213.6,-0.023482
213.8,-0.0219689999999999
214.00000000000009,-0.0218739999999999
214.2,-0.0217449999999999
214.40000000000003,-0.022831
214.6,-0.0241259999999998
214.8,-0.0239579999999999
215.00000000000009,-0.023258
215.2,-0.0243549999999999
215.40000000000003,-0.0254179999999999
215.6,-0.0239469999999999
215.8,-0.023616
216.00000000000009,-0.023071
216.2,-0.020988
216.40000000000003,-0.0187979999999998
216.6,-0.0193879999999999
216.8,-0.019913
217.00000000000009,-0.0197529999999999
217.2,-0.020342
217.40000000000003,-0.0212649999999998
217.6,-0.0222459999999999
217.8,-0.024405
218.00000000000009,-0.0257989999999999
218.2,-0.026162
218.40000000000003,-0.0252019999999999
218.6,-0.0230049999999999
218.8,-0.0199979999999999
219.00000000000009,-0.0184119999999998
219.2,-0.018415
219.40000000000003,-0.018469
219.6,-0.0192689999999999
219.8,-0.019079
220.00000000000009,-0.0194939999999999
220.2,-0.019784
220.40000000000003,-0.0189029999999998
220.6,-0.0195609999999999
220.8,-0.0202929999999998
221.00000000000009,-0.020723
221.2,-0.0179069999999998
221.40000000000003,-0.0166159999999999
221.6,-0.0163919999999999
221.8,-0.0161929999999999
222.00000000000009,-0.01536
222.2,-0.01628
222.40000000000003,-0.017727
222.6,-0.018799
222.8,-0.0197529999999999
223.00000000000009,-0.0210569999999998
223.2,-0.0226819999999998
223.40000000000003,-0.0238439999999999
223.6,-0.0242299999999999
223.8,-0.0251459999999998
224.00000000000009,-0.0252539999999998
224.2,-0.024858
224.40000000000003,-0.026043
224.6,-0.0254929999999999
224.8,-0.023565
225.00000000000009,-0.0211809999999998
225.2,-0.018297
225.40000000000003,-0.0143759999999999
225.6,-0.011079
225.8,-0.0106969999999999
226.00000000000009,-0.0123009999999998
226.2,-0.014747
226.40000000000003,-0.0179709999999999
226.6,-0.020197
226.8,-0.0209059999999998
227.00000000000009,-0.0193349999999998
227.2,-0.0199789999999999
227.40000000000003,-0.0195099999999999
227.6,-0.019706
227.8,-0.0207379999999999
228.00000000000009,-0.022988
228.2,-0.0226949999999999
228.40000000000003,-0.0215819999999999
228.6,-0.0208599999999998
228.8,-0.0188889999999999
229.00000000000009,-0.0158869999999999
229.2,-0.01326
229.40000000000003,-0.0115439999999999
229.6,-0.0121009999999999
229.8,-0.013463
230.00000000000009,-0.016019
230.2,-0.017808
230.40000000000003,-0.0214939999999999
230.6,-0.0243029999999999
230.8,-0.024809
231.00000000000009,-0.022985
231.2,-0.022504
231.40000000000003,-0.020456
231.6,-0.0186699999999999
231.8,-0.0181309999999998
232.00000000000009,-0.021033
232.2,-0.022391
232.40000000000003,-0.0232259999999999
232.6,-0.0234749999999999
232.8,-0.024839
233.00000000000009,-0.024148
233.2,-0.0236509999999998
233.40000000000003,-0.0243299999999999
233.6,-0.0227299999999999
233.8,-0.020593
234.00000000000009,-0.018599
234.2,-0.0186409999999999
234.40000000000003,-0.0196419999999999
234.6,-0.022575
234.8,-0.024232
235.00000000000009,-0.025088
235.2,-0.0250209999999999
235.40000000000003,-0.023633
235.6,-0.02146
235.8,-0.0183039999999998
236.00000000000009,-0.0173159999999998
236.2,-0.0171699999999999
236.40000000000003,-0.018089
236.6,-0.0187759999999999
236.8,-0.01932
237.00000000000009,-0.0205219999999999
237.2,-0.021063
237.40000000000003,-0.0206699999999999
237.6,-0.0200499999999999
237.8,-0.0209509999999999
238.00000000000009,-0.0207329999999998
238.2,-0.0212649999999998
238.40000000000003,-0.0217179999999999
238.6,-0.0223469999999998
238.8,-0.0231099999999999
239.00000000000009,-0.023436
239.2,-0.0224949999999999
239.40000000000003,-0.022877
239.6,-0.024764
239.8,-0.027414
240.00000000000009,-0.0277579999999999
240.2,-0.0267969999999999
240.40000000000003,-0.02455
240.6,-0.020715
240.8,-0.016988
241.00000000000009,-0.0168749999999999
241.2,-0.020685
241.40000000000003,-0.0208679999999998
241.6,-0.0201309999999999
241.8,-0.019535
242.00000000000009,-0.018189
242.2,-0.014199
242.40000000000003,-0.012167
242.6,-0.0123329999999999
242.8,-0.0127439999999998
243.00000000000009,-0.0146329999999998
243.2,-0.0147889999999999
243.40000000000003,-0.017848
243.6,-0.0200709999999999
243.8,-0.0213159999999998
244.00000000000009,-0.020823
244.2,-0.0213209999999999
244.40000000000003,-0.0209649999999999
244.6,-0.0218799999999999
244.8,-0.02251
245.00000000000009,-0.021846
245.2,-0.0220249999999999
245.40000000000003,-0.0210299999999998
245.6,-0.0194939999999999
245.8,-0.0194209999999999
246.00000000000009,-0.0218369999999998
246.2,-0.0232159999999999
246.40000000000003,-0.023174
246.6,-0.0201569999999999
246.8,-0.0175689999999999
247.00000000000009,-0.0153129999999999
247.2,-0.0160519999999999
247.40000000000003,-0.018038
247.6,-0.02163
247.8,-0.0234049999999998
248.00000000000009,-0.0239059999999999
248.2,-0.021195
248.40000000000003,-0.020699
248.6,-0.022175
248.8,-0.0243649999999999
249.00000000000009,-0.0249019999999999
249.2,-0.0277099999999999
249.40000000000003,-0.0279199999999999
249.6,-0.0273559999999999
249.8,-0.0251319999999999
250.00000000000009,-0.024791
250.2,-0.02295
250.40000000000003,-0.023231
250.6,-0.0238799999999999
250.8,-0.0258019999999998
251.00000000000009,-0.0270029999999998
251.2,-0.0281219999999999
251.40000000000003,-0.02617
251.6,-0.022925
251.8,-0.0214149999999999
252.00000000000009,-0.0219789999999999
252.2,-0.0222729999999999
252.40000000000003,-0.023517
252.6,-0.0242679999999999
252.8,-0.023322
253.00000000000009,-0.0216989999999999
253.2,-0.0227059999999998
253.40000000000003,-0.024445
253.6,-0.0265379999999999
253.8,-0.02807
254.00000000000009,-0.0265709999999999
254.2,-0.0240089999999999
254.40000000000003,-0.0213149999999999
254.6,-0.0189539999999999
254.8,-0.0186379999999999
255.00000000000009,-0.0213589999999999
255.2,-0.023274
255.40000000000003,-0.0244889999999999
255.6,-0.024448
255.8,-0.0222539999999999
256.00000000000006,-0.019568
256.2,-0.0178879999999999
256.40000000000003,-0.0181499999999998
256.6,-0.020979
256.8,-0.0244679999999999
257.00000000000006,-0.0271079999999999
257.2,-0.0291889999999999
257.40000000000003,-0.030432
257.6,-0.0299039999999999
257.8,-0.02953
258.00000000000006,-0.030075
258.2,-0.0291889999999999
258.40000000000003,-0.0276309999999999
258.6,-0.0278689999999999
258.8,-0.02672
259.00000000000006,-0.024083
259.2,-0.0227649999999999
259.40000000000003,-0.0232619999999998
259.6,-0.0221109999999999
259.8,-0.021722
260.00000000000006,-0.021859
260.2,-0.021973
260.40000000000003,-0.0192069999999999
260.6,-0.017867
260.8,-0.018383
261.00000000000006,-0.0203029999999999
261.2,-0.0211809999999998
261.40000000000003,-0.0233929999999999
261.6,-0.0248979999999998
261.8,-0.0270409999999998
262.00000000000006,-0.026693
262.2,-0.027033
262.40000000000003,-0.0273559999999999
262.6,-0.0281059999999999
262.8,-0.027544
263.00000000000006,-0.029212
263.2,-0.0294019999999999
263.40000000000003,-0.0278359999999999
263.6,-0.0250889999999999
263.8,-0.0221759999999999
264.00000000000006,-0.018917
264.2,-0.0178059999999999
264.40000000000003,-0.017951
264.6,-0.020591
264.8,-0.023684
265.00000000000006,-0.0261329999999999
265.2,-0.0268539999999999
265.40000000000003,-0.027894
265.6,-0.028362
265.8,-0.0271319999999999
266.00000000000006,-0.0247589999999999
266.2,-0.0233879999999999
266.40000000000003,-0.022653
266.6,-0.021198
266.8,-0.0219499999999999
267.00000000000006,-0.024351
267.2,-0.025957
267.40000000000003,-0.0267399999999999
267.6,-0.0270079999999999
267.8,-0.02567
268.00000000000006,-0.0251509999999999
268.2,-0.0262299999999999
268.40000000000003,-0.026083
268.6,-0.025379
268.8,-0.024162
269.00000000000006,-0.0222899999999999
269.2,-0.019697
269.40000000000003,-0.0185189999999999
269.6,-0.0205919999999999
269.8,-0.024092
270.00000000000006,-0.0267599999999998
270.2,-0.0279879999999999
270.40000000000003,-0.0286729999999999
270.6,-0.02645
270.8,-0.0239739999999999
271.00000000000006,-0.0217039999999999
271.2,-0.0211129999999999
271.40000000000003,-0.02184
271.6,-0.02193
271.8,-0.022307
272.00000000000006,-0.02251
272.2,-0.0234909999999999
272.40000000000003,-0.024326
272.6,-0.027303
272.8,-0.0292729999999998
273.00000000000006,-0.0308619999999999
273.2,-0.030542
273.40000000000003,-0.0293209999999999
273.6,-0.027025
273.8,-0.026496
274.00000000000006,-0.0260629999999999
274.2,-0.0257529999999999
274.40000000000003,-0.0257819999999999
274.6,-0.0244839999999999
274.8,-0.022953
275.00000000000006,-0.0216319999999998
275.2,-0.023147
275.40000000000003,-0.0250159999999999
275.6,-0.028235
275.8,-0.0296879999999999
276.00000000000006,-0.030812
276.2,-0.0296509999999998
276.40000000000003,-0.0277769999999999
276.6,-0.0271099999999999
276.8,-0.027312
277.00000000000006,-0.02926
277.2,-0.0296589999999998
277.40000000000003,-0.0294669999999999
277.6,-0.0282949999999999
277.8,-0.025997
278.00000000000006,-0.023247
278.2,-0.0203109999999999
278.40000000000003,-0.0198639999999998
278.6,-0.0198909999999998
278.8,-0.021962
279.00000000000006,-0.0229109999999999
279.2,-0.025519
279.40000000000003,-0.0256259999999999
279.6,-0.0264109999999999
279.8,-0.0265509999999999
280.00000000000006,-0.0273799999999999
280.2,-0.029781
280.40000000000003,-0.033376
280.6,-0.0344459999999999
280.8,-0.0344739999999998
281.00000000000006,-0.0356119999999999
281.2,-0.0330999999999999
281.40000000000003,-0.0298749999999998
281.6,-0.026685
281.8,-0.026021
282.00000000000006,-0.0243659999999998
282.2,-0.0261
282.40000000000003,-0.0273999999999998
282.6,-0.0280489999999999
282.8,-0.025104
283.00000000000006,-0.0216799999999999
283.2,-0.0192289999999999
283.40000000000003,-0.018523
283.6,-0.019881
283.8,-0.022629
284.00000000000006,-0.027719
284.2,-0.0297149999999999
284.40000000000003,-0.0295859999999998
284.6,-0.0286589999999999
284.8,-0.028275
285.00000000000006,-0.026334
285.2,-0.0255549999999999
285.40000000000003,-0.0281569999999999
285.6,-0.0307869999999998
285.8,-0.0336239999999998
286.00000000000006,-0.0349219999999999
286.2,-0.0353909999999999
286.40000000000003,-0.0340949999999999
286.6,-0.0322519999999999
286.8,-0.030807
287.00000000000006,-0.0299279999999999
287.2,-0.0302769999999998
287.40000000000003,-0.0284219999999999
287.6,-0.026532
287.8,-0.0263469999999999
288.00000000000006,-0.0274889999999998
288.2,-0.02777
288.40000000000003,-0.0277859999999998
288.6,-0.0298
288.8,-0.029487
289.00000000000006,-0.0271699999999999
289.2,-0.0248699999999999
289.40000000000003,-0.0252319999999999
289.6,-0.024418
289.8,-0.0231989999999999
290.00000000000006,-0.022105
290.2,-0.0216529999999999
290.40000000000003,-0.0210909999999999
290.6,-0.0211959999999999
290.8,-0.02323
291.00000000000006,-0.0269599999999998
291.2,-0.0287789999999998
291.40000000000003,-0.0304819999999998
291.6,-0.0322869999999999
291.8,-0.033309
292.00000000000006,-0.0337179999999999
292.2,-0.034977
292.40000000000003,-0.0358129999999998
292.6,-0.035385
292.8,-0.0333999999999998
293.00000000000006,-0.0304899999999999
293.2,-0.027649
293.40000000000003,-0.026707
293.6,-0.0278749999999998
293.8,-0.0280609999999998
294.00000000000006,-0.0279629999999999
294.2,-0.0284059999999999
294.40000000000003,-0.0272209999999999
294.6,-0.023787
294.8,-0.0223409999999999
295.00000000000006,-0.0224109999999999
295.2,-0.023957
295.40000000000003,-0.0259709999999999
295.6,-0.0285629999999998
295.8,-0.03041
296.00000000000006,-0.0320419999999999
296.2,-0.0311759999999998
296.40000000000003,-0.0278799999999999
296.6,-0.025473
296.8,-0.0235499999999999
297.00000000000006,-0.0219359999999999
297.2,-0.0203769999999998
297.40000000000003,-0.0213149999999999
297.6,-0.020942
297.8,-0.021927
298.00000000000006,-0.022456
298.2,-0.023808
298.40000000000003,-0.0250449999999999
298.6,-0.027598
298.8,-0.0292809999999998
299.00000000000006,-0.0294959999999999
299.2,-0.0302339999999998
299.40000000000003,-0.0303149999999998
299.6,-0.0303269999999999
299.8,-0.029074
299.99999999999994,-0.027063
300.2,-0.028069
300.3999999999999,-0.0272879999999999
300.6,-0.027571
300.8,-0.0272729999999999
300.99999999999994,-0.0304809999999999
301.2,-0.031501
301.3999999999999,-0.032885
301.6,-0.033394
301.8,-0.032093
301.99999999999994,-0.029291
302.2,-0.027491
302.3999999999999,-0.025581
302.6,-0.0235239999999999
302.8,-0.023853
302.99999999999994,-0.024204
303.2,-0.024245
303.3999999999999,-0.025851
303.6,-0.027753
303.8,-0.028016
303.99999999999994,-0.02685
304.2,-0.026198
304.3999999999999,-0.024317
304.6,-0.022745
304.8,-0.022121
304.99999999999994,-0.024526
305.2,-0.025155
305.3999999999999,-0.025765
305.6,-0.026901
305.8,-0.029664
305.99999999999994,-0.0299209999999999
306.2,-0.031228
306.3999999999999,-0.033691
306.6,-0.033826
306.8,-0.0344849999999999
306.99999999999994,-0.03332
307.2,-0.032052
307.3999999999999,-0.030665
307.6,-0.0313539999999999
307.8,-0.031116
307.99999999999994,-0.0332649999999999
308.2,-0.036542
308.3999999999999,-0.036606
308.6,-0.036017
308.8,-0.0341489999999999
308.99999999999994,-0.03137
309.2,-0.028225
309.3999999999999,-0.028186
309.6,-0.0292729999999999
309.8,-0.028324
309.99999999999994,-0.026981
310.2,-0.026546
310.3999999999999,-0.026104
310.6,-0.0235969999999999
310.8,-0.022136
310.99999999999994,-0.020336
311.2,-0.019379
311.3999999999999,-0.019278
311.6,-0.022384
311.8,-0.027745
311.99999999999994,-0.034317
312.2,-0.037262
312.3999999999999,-0.0380719999999999
312.6,-0.037102
312.8,-0.034926
312.99999999999994,-0.032523
313.2,-0.031598
313.3999999999999,-0.0318089999999999
313.6,-0.03126
313.8,-0.030689
313.99999999999994,-0.030498
314.2,-0.0309869999999999
314.3999999999999,-0.030633
314.6,-0.0328629999999999
314.8,-0.0357469999999999
314.99999999999994,-0.037789
315.2,-0.039124
315.3999999999999,-0.0393569999999999
315.6,-0.03644
315.8,-0.033482
315.99999999999994,-0.030575
316.2,-0.028974
316.3999999999999,-0.0297359999999999
316.6,-0.030784
316.8,-0.028681
316.99999999999994,-0.0278059999999999
317.2,-0.0255009999999999
317.3999999999999,-0.022957
317.6,-0.021043
317.8,-0.023025
317.99999999999994,-0.024376
318.2,-0.025743
318.3999999999999,-0.024677
318.6,-0.023235
318.8,-0.0229639999999999
318.99999999999994,-0.024865
319.2,-0.026861
319.3999999999999,-0.029865
319.6,-0.032854
319.8,-0.033652
319.99999999999994,-0.032024
320.2,-0.0302529999999999
320.3999999999999,-0.02898
320.6,-0.0258
320.8,-0.024285
320.99999999999994,-0.022749
321.2,-0.021706
321.3999999999999,-0.022594
321.6,-0.025384
321.8,-0.027295
321.99999999999994,-0.02805
322.2,-0.027559
322.3999999999999,-0.0261449999999999
322.6,-0.024657
322.8,-0.023015
322.99999999999994,-0.02271
323.2,-0.02383
323.3999999999999,-0.0253379999999999
323.6,-0.028224
323.8,-0.032051
323.99999999999994,-0.034328
324.2,-0.035044
324.3999999999999,-0.035197
324.6,-0.035864
324.8,-0.035573
324.99999999999994,-0.0358399999999999
325.2,-0.037216
325.3999999999999,-0.038337
325.6,-0.0386469999999999
325.8,-0.0381139999999999
325.99999999999994,-0.038101
326.2,-0.0385309999999999
326.3999999999999,-0.037401
326.6,-0.037112
326.8,-0.036795
326.99999999999994,-0.0363839999999999
327.2,-0.034676
327.3999999999999,-0.034811
327.6,-0.033831
327.8,-0.033379
327.99999999999994,-0.032677
328.2,-0.033618
328.3999999999999,-0.0318669999999999
328.6,-0.0311609999999999
328.8,-0.0308019999999999
328.99999999999994,-0.030407
329.2,-0.030559
329.3999999999999,-0.033835
329.6,-0.035422
329.8,-0.034781
329.99999999999994,-0.0341489999999999
330.2,-0.033775
330.3999999999999,-0.032571
330.6,-0.032337
330.8,-0.034046
330.99999999999994,-0.035579
331.2,-0.036691
331.3999999999999,-0.0368279999999999
331.6,-0.0348249999999999
331.8,-0.031712
331.99999999999994,-0.029665
332.2,-0.027546
332.3999999999999,-0.024622
332.6,-0.0262379999999999
332.8,-0.027784
332.99999999999994,-0.031675
333.2,-0.034874
333.3999999999999,-0.038518
333.6,-0.037399
333.8,-0.036111
333.99999999999994,-0.0332799999999999
334.2,-0.0312959999999999
334.3999999999999,-0.0311449999999999
334.6,-0.032667
334.8,-0.034671
334.99999999999994,-0.033465
335.2,-0.0316389999999999
335.3999999999999,-0.031092
335.6,-0.031649
335.8,-0.031801
335.99999999999994,-0.033189
336.2,-0.034
336.3999999999999,-0.0333339999999999
336.6,-0.030332
336.8,-0.028173
336.99999999999994,-0.02776
337.2,-0.028513
337.3999999999999,-0.029918
337.6,-0.03117
337.8,-0.032001
337.99999999999994,-0.0327169999999999
338.2,-0.033291
338.3999999999999,-0.0334619999999999
338.6,-0.0331839999999999
338.8,-0.033996
338.99999999999994,-0.0327509999999999
339.2,-0.0303039999999999
339.3999999999999,-0.029488
339.6,-0.030289
339.8,-0.032298
339.99999999999994,-0.032847
340.2,-0.0345199999999999
340.3999999999999,-0.032139
340.6,-0.031945
340.8,-0.0281449999999999
340.99999999999994,-0.028159
341.2,-0.027704
341.3999999999999,-0.030124
341.6,-0.029352
341.8,-0.03137
341.99999999999994,-0.033451
342.2,-0.033524
342.3999999999999,-0.032201
342.6,-0.032341
342.8,-0.032129
342.99999999999994,-0.029421
343.2,-0.02927
343.3999999999999,-0.030329
343.6,-0.0304229999999999
343.8,-0.030274
343.99999999999994,-0.029866
344.2,-0.028828
344.3999999999999,-0.026313
344.6,-0.024275
344.8,-0.0227669999999999
344.99999999999994,-0.024452
345.2,-0.0261689999999999
345.3999999999999,-0.027847
345.6,-0.02972
345.8,-0.032003
345.99999999999994,-0.032708
346.2,-0.031568
346.3999999999999,-0.0319
346.6,-0.030375
346.8,-0.0297549999999999
346.99999999999994,-0.0293809999999999
347.2,-0.0313999999999999
347.3999999999999,-0.033773
347.6,-0.038181
347.8,-0.040642
347.99999999999994,-0.0409089999999999
348.2,-0.04063
348.3999999999999,-0.038194
348.6,-0.035027
348.8,-0.031298
348.99999999999994,-0.030715
349.2,-0.031402
349.3999999999999,-0.0339019999999999
349.6,-0.035302
349.8,-0.036825
349.99999999999994,-0.0389399999999999
350.2,-0.039053
350.3999999999999,-0.03909
350.6,-0.0395499999999999
350.8,-0.039922
350.99999999999994,-0.038267
351.2,-0.036221
351.3999999999999,-0.033448
351.6,-0.033394
351.8,-0.034356
351.99999999999994,-0.034865
352.2,-0.036105
352.3999999999999,-0.036381
352.6,-0.0354959999999999
352.8,-0.033455
352.99999999999994,-0.031679
353.2,-0.030501
353.3999999999999,-0.030005
353.6,-0.029608
353.8,-0.0290639999999999
353.99999999999994,-0.0302959999999999
354.2,-0.032405
354.3999999999999,-0.0347359999999999
354.6,-0.036632
354.8,-0.0390869999999999
354.99999999999994,-0.0397089999999999
355.2,-0.038085
355.3999999999999,-0.035837
355.6,-0.03334
355.8,-0.031943
355.99999999999994,-0.030919
356.2,-0.0318669999999999
356.3999999999999,-0.032756
356.6,-0.0347899999999999
356.8,-0.035434
356.99999999999994,-0.035905
357.2,-0.0346279999999999
357.3999999999999,-0.035663
357.6,-0.036591
357.8,-0.037497
357.99999999999994,-0.04082
358.2,-0.044421
358.3999999999999,-0.0457469999999999
358.6,-0.044063
358.8,-0.042648
358.99999999999994,-0.0397629999999999
359.2,-0.0374459999999999
359.3999999999999,-0.0364809999999999
359.6,-0.037622
359.8,-0.040157
359.99999999999994,-0.040217
360.2,-0.040403
360.3999999999999,-0.039355
360.6,-0.038904
360.8,-0.0367319999999999
361.0,-0.036768
361.2,-0.034391
361.3999999999999,-0.0316779999999999
361.6,-0.03022
361.8,-0.029846
362.0,-0.029537
362.2,-0.032028
362.3999999999999,-0.035354
362.6,-0.036498
362.8,-0.034192
363.0,-0.032924
363.2,-0.030406
363.3999999999999,-0.0302189999999999
363.6,-0.029406
363.8,-0.032934
364.0,-0.033698
364.2,-0.0360409999999999
364.3999999999999,-0.0362419999999999
364.6,-0.038451
364.8,-0.0383769999999999
365.0,-0.039308
365.2,-0.03876
365.3999999999999,-0.0380719999999999
365.6,-0.035312
365.8,-0.031474
366.0,-0.028857
366.2,-0.027908
366.3999999999999,-0.0258289999999999
366.6,-0.023564
366.8,-0.023958
367.0,-0.0268909999999999
367.2,-0.029938
367.3999999999999,-0.033232
367.6,-0.0341759999999999
367.8,-0.034989
368.0,-0.0346589999999999
368.2,-0.034109
368.3999999999999,-0.033931
368.6,-0.037636
368.8,-0.04083
369.0,-0.040911
369.2,-0.040387
369.3999999999999,-0.040796
369.6,-0.042115
369.8,-0.0417089999999999
370.0,-0.041959
370.2,-0.0413459999999999
370.3999999999999,-0.0399019999999999
370.6,-0.037892
370.8,-0.037937
371.0,-0.0393689999999999
371.2,-0.040646
371.3999999999999,-0.0408169999999999
371.6,-0.0410099999999999
371.8,-0.039932
372.0,-0.036302
372.2,-0.03292
372.3999999999999,-0.031704
372.6,-0.030799
372.8,-0.03098
373.0,-0.0337279999999999
373.2,-0.0368209999999999
373.3999999999999,-0.039331
373.6,-0.040169
373.8,-0.0400829999999999
374.0,-0.039362
374.2,-0.038922
374.3999999999999,-0.037007
374.6,-0.0353809999999999
374.8,-0.033905
375.0,-0.032807
375.2,-0.0309169999999999
375.3999999999999,-0.032456
375.6,-0.0339
375.8,-0.035577
376.0,-0.035646
376.2,-0.036974
376.3999999999999,-0.036286
376.6,-0.036044
376.8,-0.036213
377.0,-0.0371839999999999
377.2,-0.035989
377.3999999999999,-0.035834
377.6,-0.0354729999999999
377.8,-0.0352379999999999
378.0,-0.0335659999999999
378.2,-0.034016
378.3999999999999,-0.033394
378.6,-0.033448
378.8,-0.033212
379.0,-0.0347939999999999
379.2,-0.0353459999999999
379.3999999999999,-0.0359289999999999
379.6,-0.036212
379.8,-0.035683
380.0,-0.035208
380.2,-0.033951
380.3999999999999,-0.032587
380.6,-0.032615
380.8,-0.033934
381.0,-0.0323689999999999
381.2,-0.032826
381.3999999999999,-0.0339329999999999
381.6,-0.034577
381.8,-0.035345
382.0,-0.037718
382.2,-0.0386819999999999
382.3999999999999,-0.038186
382.6,-0.037916
382.8,-0.035815
383.0,-0.035096
383.2,-0.036162
383.3999999999999,-0.038289
383.6,-0.0406969999999999
383.8,-0.0437509999999999
384.0,-0.0450709999999999
384.2,-0.043184
384.3999999999999,-0.039385
384.6,-0.0360829999999999
384.8,-0.034097
385.0,-0.0328789999999999
385.2,-0.032425
385.3999999999999,-0.032112
385.6,-0.029862
385.8,-0.029429
386.0,-0.03137
386.2,-0.032892
386.3999999999999,-0.035378
386.6,-0.0385619999999999
386.8,-0.038028
387.0,-0.036251
387.2,-0.036772
387.3999999999999,-0.038486
387.6,-0.0378789999999999
387.8,-0.0376239999999999
388.0,-0.0358589999999999
388.2,-0.0348479999999999
388.3999999999999,-0.033604
388.6,-0.0335619999999999
388.8,-0.034233
389.0,-0.035258
389.2,-0.035881
389.3999999999999,-0.0369869999999999
389.6,-0.039582
389.8,-0.039248
390.0,-0.038633
390.2,-0.038098
390.3999999999999,-0.037726
390.6,-0.036583
390.8,-0.0373109999999999
391.0,-0.036961
391.2,-0.036244
391.3999999999999,-0.0353069999999999
391.6,-0.035232
391.8,-0.037295
392.0,-0.04113
392.2,-0.0454459999999999
392.3999999999999,-0.0478469999999999
392.6,-0.046522
392.8,-0.043511
393.0,-0.040542
393.2,-0.037119
393.3999999999999,-0.033787
393.6,-0.034842
393.8,-0.0371909999999999
394.0,-0.040155
394.2,-0.041831
394.3999999999999,-0.0421289999999999
394.6,-0.039714
394.8,-0.037073
395.0,-0.035201
395.2,-0.034501
395.3999999999999,-0.0351759999999999
395.6,-0.036492
395.8,-0.038306
396.0,-0.038152
396.2,-0.037924
396.3999999999999,-0.040569
396.6,-0.043932
396.8,-0.045655
397.0,-0.045564
397.2,-0.044595
397.3999999999999,-0.04249
397.6,-0.0394769999999999
397.8,-0.0385349999999999
398.0,-0.03963
398.2,-0.040517
398.3999999999999,-0.038143
398.6,-0.035823
398.8,-0.033071
399.0,-0.031298
399.2,-0.0302189999999999
399.3999999999999,-0.031054
399.6,-0.032687
399.8,-0.03431
400.0,-0.035416
400.2,-0.036084
400.3999999999999,-0.0370789999999999
400.6,-0.0378479999999999
400.8,-0.038613
401.0,-0.0410789999999999
401.2,-0.043034
401.3999999999999,-0.04505
401.6,-0.045887
401.8,-0.0452569999999999
402.0,-0.041142
402.2,-0.038713
402.3999999999999,-0.037382
402.6,-0.038676
402.8,-0.04099
403.0,-0.045436
403.2,-0.0483069999999999
403.3999999999999,-0.0476269999999999
403.6,-0.044248
403.8,-0.040069
404.0,-0.035229
404.2,-0.032669
404.3999999999999,-0.032803
404.6,-0.0361639999999999
404.8,-0.039565
405.0,-0.041212
405.2,-0.0404499999999999
405.3999999999999,-0.038901
405.6,-0.035874
405.8,-0.03298
406.0,-0.033352
406.2,-0.034254
406.3999999999999,-0.036888
406.6,-0.037864
406.8,-0.03981
407.0,-0.04031
407.2,-0.042916
407.3999999999999,-0.045212
407.6,-0.046453
407.8,-0.046399
408.0,-0.046059
408.2,-0.043285
408.3999999999999,-0.038649
408.6,-0.0357589999999999
408.8,-0.034795
409.0,-0.035229
409.2,-0.0367509999999999
409.3999999999999,-0.0379209999999999
409.6,-0.040116
409.8,-0.040795
410.0,-0.040466
410.2,-0.039437
410.3999999999999,-0.0405269999999999
410.6,-0.0416429999999999
410.8,-0.041563
411.0,-0.0392379999999999
411.2,-0.0363959999999999
411.3999999999999,-0.034255
411.6,-0.0346079999999999
411.8,-0.034897
412.0,-0.036922
412.2,-0.037773
412.3999999999999,-0.036661
412.6,-0.033019
412.8,-0.031626
413.0,-0.031999
413.2,-0.034538
413.3999999999999,-0.03654
413.6,-0.038022
413.8,-0.037596
414.0,-0.035332
414.2,-0.034343
414.3999999999999,-0.0359519999999999
414.6,-0.037383
414.8,-0.0411599999999999
415.0,-0.045479
415.2,-0.0492259999999999
415.3999999999999,-0.050892
415.6,-0.049715
415.8,-0.046763
416.0,-0.043256
416.2,-0.039989
416.3999999999999,-0.037764
416.6,-0.036891
416.8,-0.036368
417.0,-0.036884
417.2,-0.038061
417.3999999999999,-0.039926
417.6,-0.040772
417.8,-0.041273
418.0,-0.04148
418.2,-0.040745
418.3999999999999,-0.0377319999999999
418.6,-0.037304
418.8,-0.036831
419.0,-0.0382339999999999
419.2,-0.039196
419.3999999999999,-0.0411529999999999
419.6,-0.040883
419.8,-0.040935
420.0,-0.037352
420.2,-0.034918
420.3999999999999,-0.032739
420.6,-0.033876
420.8,-0.034011
421.0,-0.035683
421.2,-0.0375659999999999
421.3999999999999,-0.038889
421.6,-0.038688
421.8,-0.039891
422.0,-0.041964
422.2,-0.04281
422.3999999999999,-0.046291
422.6,-0.048846
422.8,-0.052316
423.0,-0.0523139999999999
423.2,-0.051323
423.3999999999999,-0.048294
423.6,-0.046472
423.8,-0.044421
424.0,-0.044726
424.2,-0.0450209999999999
424.3999999999999,-0.0451719999999999
424.6,-0.046136
424.8,-0.047482
425.0,-0.04754
425.2,-0.0473919999999999
425.3999999999999,-0.0456849999999999
425.6,-0.043551
425.8,-0.0408399999999999
426.0,-0.038204
426.2,-0.037158
426.3999999999999,-0.0383769999999999
426.6,-0.039424
426.8,-0.038231
427.0,-0.039713
427.2,-0.039219
427.3999999999999,-0.03958
427.6,-0.040694
427.8,-0.0426389999999999
428.0,-0.045023
428.2,-0.047309
428.3999999999999,-0.048323
428.6,-0.050281
428.8,-0.050294
429.0,-0.0487889999999999
429.2,-0.0485419999999999
429.3999999999999,-0.048354
429.6,-0.0469939999999999
429.8,-0.04712
430.0,-0.047777
430.2,-0.047495
430.3999999999999,-0.0460709999999999
430.6,-0.042548
430.8,-0.03924
431.0,-0.036376
431.2,-0.033021
431.3999999999999,-0.030414
431.6,-0.030549
431.8,-0.0323809999999999
432.0,-0.0330759999999999
432.2,-0.034333
432.3999999999999,-0.037156
432.6,-0.039669
432.8,-0.043447
433.0,-0.047594
433.2,-0.052236
433.3999999999999,-0.05117
433.6,-0.0472449999999999
433.8,-0.043345
434.0,-0.0409669999999999
434.2,-0.040729
434.3999999999999,-0.043709
434.6,-0.045907
434.8,-0.045356
435.0,-0.0431369999999999
435.2,-0.0408439999999999
435.3999999999999,-0.0411599999999999
435.6,-0.042437
435.8,-0.042579
436.0,-0.042667
436.2,-0.041561
436.3999999999999,-0.0406079999999999
436.6,-0.04176
436.8,-0.042262
437.0,-0.043405
437.2,-0.044346
437.3999999999999,-0.0446889999999999
437.6,-0.045785
437.8,-0.048597
438.0,-0.0483
438.2,-0.046915
438.3999999999999,-0.0459129999999999
438.6,-0.0442
438.8,-0.0425039999999999
439.0,-0.04268
439.2,-0.0428319999999999
439.3999999999999,-0.042595
439.6,-0.041217
439.8,-0.04035
440.0,-0.039876
440.2,-0.040227
440.3999999999999,-0.039824
440.6,-0.038968
440.8,-0.038548
441.0,-0.038197
441.2,-0.037877
441.3999999999999,-0.038412
441.6,-0.041074
441.8,-0.0431559999999999
442.0,-0.0456969999999999
442.2,-0.047749
442.3999999999999,-0.047352
442.6,-0.0450639999999999
442.8,-0.0434809999999999
443.0,-0.041521
443.2,-0.0418629999999999
443.3999999999999,-0.044155
443.6,-0.04622
443.8,-0.0483689999999999
444.0,-0.049935
444.2,-0.050244
444.3999999999999,-0.049296
444.6,-0.0483069999999999
444.8,-0.046332
445.0,-0.04425
445.2,-0.0422759999999999
445.3999999999999,-0.0419209999999999
445.6,-0.041765
445.8,-0.0408589999999999
446.0,-0.039175
446.2,-0.0371259999999999
446.3999999999999,-0.036181
446.6,-0.037463
446.8,-0.038063
447.0,-0.0397509999999999
447.2,-0.040509
447.3999999999999,-0.040441
447.6,-0.038586
447.8,-0.039439
448.0,-0.040344
448.2,-0.0424339999999999
448.3999999999999,-0.044455
448.6,-0.046767
448.8,-0.0474229999999999
449.0,-0.047254
449.2,-0.046592
449.3999999999999,-0.046042
449.6,-0.046459
449.8,-0.047854
450.0,-0.049282
450.2,-0.050203
450.3999999999999,-0.049143
450.6,-0.0474769999999999
450.8,-0.0452879999999999
451.0,-0.0447049999999999
451.2,-0.043822
451.3999999999999,-0.0432879999999999
451.6,-0.04212
451.8,-0.042565
452.0,-0.041877
452.2,-0.040795
452.3999999999999,-0.03993
452.6,-0.040626
452.8,-0.038044
453.0,-0.038722
453.2,-0.040537
453.3999999999999,-0.043545
453.6,-0.044615
453.8,-0.046036
454.0,-0.0465229999999999
454.2,-0.047939
454.3999999999999,-0.049533
454.6,-0.050509
454.8,-0.052749
455.0,-0.052888
455.2,-0.053691
455.3999999999999,-0.051181
455.6,-0.0501449999999999
455.8,-0.0482639999999999
456.0,-0.045683
456.2,-0.039165
456.3999999999999,-0.036412
456.6,-0.035144
456.8,-0.0362259999999999
457.0,-0.037892
457.2,-0.041734
457.3999999999999,-0.045096
457.6,-0.0476699999999999
457.8,-0.048262
458.0,-0.046807
458.2,-0.0457739999999999
458.3999999999999,-0.0443419999999999
458.6,-0.042518
458.8,-0.041391
459.0,-0.043073
459.2,-0.043225
459.3999999999999,-0.0418239999999999
459.6,-0.041004
459.8,-0.0426349999999999
460.0,-0.045457
460.2,-0.048104
460.3999999999999,-0.050788
460.6,-0.0521749999999999
460.8,-0.050741
461.0,-0.0480399999999999
461.2,-0.046982
461.3999999999999,-0.045737
461.6,-0.0440789999999999
461.8,-0.0430639999999999
462.0,-0.041128
462.2,-0.0401679999999999
462.3999999999999,-0.040231
462.6,-0.043843
462.8,-0.0469629999999999
463.0,-0.050505
463.2,-0.0529589999999999
463.3999999999999,-0.054841
463.6,-0.0542759999999999
463.8,-0.052165
464.0,-0.049667
464.2,-0.0462489999999999
464.3999999999999,-0.045804
464.6,-0.045777
464.8,-0.047734
465.0,-0.049563
465.2,-0.0526389999999999
465.3999999999999,-0.0525649999999999
465.6,-0.049385
465.8,-0.045113
466.0,-0.041914
466.2,-0.038158
466.3999999999999,-0.036005
466.6,-0.0374959999999999
466.8,-0.039733
467.0,-0.0430869999999999
467.2,-0.046023
467.3999999999999,-0.048319
467.6,-0.048942
467.8,-0.04986
468.0,-0.049329
468.2,-0.049042
468.3999999999999,-0.050202
468.6,-0.0517429999999999
468.8,-0.05139
469.0,-0.0493069999999999
469.2,-0.04826
469.3999999999999,-0.046876
469.6,-0.0450789999999999
469.8,-0.04497
470.0,-0.045123
470.2,-0.042592
470.3999999999999,-0.041386
470.6,-0.041381
470.8,-0.042094
471.0,-0.045362
471.2,-0.046748
471.3999999999999,-0.0478819999999999
471.6,-0.04883
471.8,-0.049452
472.0,-0.046152
472.2,-0.0451599999999999
472.3999999999999,-0.0426239999999999
472.6,-0.037964
472.8,-0.035196
473.0,-0.0350679999999999
473.2,-0.038534
473.3999999999999,-0.039881
473.6,-0.043673
473.8,-0.048414
474.0,-0.052535
474.2,-0.052962
474.3999999999999,-0.051363
474.6,-0.050721
474.8,-0.048472
475.0,-0.046217
475.2,-0.0444539999999999
475.3999999999999,-0.045683
475.6,-0.046862
475.8,-0.0468469999999999
476.0,-0.04712
476.2,-0.049402
476.3999999999999,-0.052077
476.6,-0.05062
476.8,-0.048951
477.0,-0.048491
477.2,-0.048426
477.3999999999999,-0.046968
477.6,-0.046825
477.8,-0.047312
478.0,-0.047563
478.2,-0.0461989999999999
478.3999999999999,-0.046143
478.6,-0.048176
478.8,-0.0507279999999999
479.0,-0.0513379999999999
479.2,-0.0517279999999999
479.3999999999999,-0.05086
479.6,-0.049428
479.8,-0.0469319999999999
480.0,-0.046551
480.2,-0.046791
480.3999999999999,-0.049402
480.6,-0.049651
480.8,-0.049965
481.0,-0.049103
481.2,-0.048051
481.3999999999999,-0.044775
481.6,-0.041619
481.8,-0.039506
482.0,-0.0396469999999999
482.2,-0.040116
482.3999999999999,-0.041934
482.6,-0.047528
482.8,-0.0527549999999999
483.0,-0.054667
483.2,-0.0545999999999999
483.3999999999999,-0.053769
483.6,-0.051271
483.8,-0.0497619999999999
484.0,-0.050219
484.2,-0.051638
484.3999999999999,-0.052646
484.6,-0.053192
484.8,-0.051084
485.0,-0.048696
485.2,-0.046953
485.3999999999999,-0.045914
485.6,-0.0457049999999999
485.8,-0.04605
486.0,-0.0455929999999999
486.2,-0.045348
486.3999999999999,-0.0463529999999999
486.6,-0.0469629999999999
486.8,-0.0478319999999999
487.0,-0.0499
487.2,-0.052234
487.3999999999999,-0.053825
487.6,-0.055418
487.8,-0.057853
488.0,-0.058213
488.2,-0.055437
488.3999999999999,-0.052262
488.6,-0.04897
488.8,-0.046653
489.0,-0.0453149999999999
489.2,-0.047201
489.3999999999999,-0.048644
489.6,-0.050347
489.8,-0.050182
490.0,-0.050188
490.2,-0.04918
490.3999999999999,-0.049342
490.6,-0.048749
490.8,-0.048061
491.0,-0.047752
491.2,-0.048646
491.3999999999999,-0.0499209999999999
491.6,-0.051572
491.8,-0.052072
492.0,-0.051406
492.2,-0.0503339999999999
492.3999999999999,-0.050085
492.6,-0.048977
492.8,-0.047869
493.0,-0.047032
493.2,-0.04691
493.3999999999999,-0.046437
493.6,-0.046844
493.8,-0.047551
494.0,-0.04885
494.2,-0.049705
494.3999999999999,-0.047752
494.6,-0.0470909999999999
494.8,-0.04775
495.0,-0.049035
495.2,-0.049682
495.3999999999999,-0.0522949999999999
495.6,-0.054348
495.8,-0.055563
496.0,-0.0547349999999999
496.2,-0.053292
496.3999999999999,-0.0528089999999999
496.6,-0.051848
496.8,-0.0517039999999999
497.0,-0.052659
497.2,-0.052894
497.3999999999999,-0.048887
497.6,-0.045161
497.8,-0.041208
498.0,-0.0391719999999999
498.2,-0.0381369999999999
498.3999999999999,-0.039242
498.6,-0.0388749999999999
498.8,-0.038878
499.0,-0.038986
499.2,-0.0399019999999999
499.3999999999999,-0.0429
499.6,-0.048167
499.8,-0.0511719999999999
500.0,-0.052229
500.2,-0.052543
500.3999999999999,-0.0523529999999999
500.6,-0.049908
500.8,-0.048633
501.0,-0.048356
501.2,-0.04903
501.3999999999999,-0.048201
501.6,-0.047822
501.8,-0.048633
502.0,-0.050072
502.2,-0.0500939999999999
502.3999999999999,-0.048717
502.6,-0.046939
502.8,-0.0442489999999999
503.0,-0.0428859999999999
503.2,-0.04312
503.3999999999999,-0.043833
503.6,-0.045943
503.8,-0.0478509999999999
504.0,-0.047582
504.2,-0.046826
504.3999999999999,-0.048529
504.6,-0.049468
504.8,-0.050317
505.0,-0.051541
505.2,-0.052443
505.3999999999999,-0.0530129999999999
505.6,-0.0524689999999999
505.8,-0.051513
506.0,-0.049929
506.2,-0.050987
506.3999999999999,-0.0495769999999999
506.6,-0.047665
506.8,-0.046443
507.0,-0.046845
507.2,-0.045233
507.3999999999999,-0.046744
507.6,-0.051532
507.8,-0.055109
508.0,-0.056748
508.2,-0.056006
508.3999999999999,-0.0527199999999999
508.6,-0.048452
508.8,-0.047007
509.0,-0.045354
509.2,-0.044815
509.3999999999999,-0.0453529999999999
509.6,-0.045642
509.8,-0.046509
510.0,-0.04734
510.2,-0.049505
510.3999999999999,-0.05275
510.6,-0.055736
510.8,-0.056702
511.0,-0.058065
511.2,-0.0591749999999999
511.3999999999999,-0.058945
511.6,-0.058045
511.8,-0.0549939999999999
512.0,-0.051611
512.2,-0.048624
512.3999999999999,-0.046695
512.5999999999999,-0.045651
512.8,-0.048066
513.0,-0.050772
513.2,-0.053396
513.3999999999999,-0.054614
513.5999999999999,-0.054883
513.8,-0.055481
514.0,-0.055802
514.2,-0.0554259999999999
514.3999999999999,-0.055464
514.5999999999999,-0.056467
514.8,-0.0563179999999999
515.0,-0.057258
515.2,-0.059116
515.3999999999999,-0.060833
515.5999999999999,-0.061725
515.8,-0.061738
516.0,-0.060537
516.2,-0.057637
516.3999999999999,-0.054066
516.5999999999999,-0.0511249999999999
516.8,-0.049873
517.0,-0.049097
517.2,-0.048752
517.3999999999999,-0.049956
517.5999999999999,-0.051846
517.8,-0.049638
518.0,-0.045906
518.2,-0.044055
518.3999999999999,-0.044046
518.5999999999999,-0.0441599999999999
518.8,-0.047008
519.0,-0.053688
519.2,-0.0579779999999999
519.3999999999999,-0.060406
519.5999999999999,-0.060114
519.8,-0.059921
520.0,-0.057142
520.2,-0.05417
520.3999999999999,-0.050626
520.5999999999999,-0.048785
520.8,-0.046709
521.0,-0.044941
521.2,-0.044081
521.3999999999999,-0.044352
521.5999999999999,-0.047112
521.8,-0.0504419999999999
522.0,-0.053115
522.2,-0.056238
522.3999999999999,-0.0574259999999999
522.5999999999999,-0.055796
522.8,-0.053505
523.0,-0.0536119999999999
523.2,-0.052761
523.3999999999999,-0.053309
523.5999999999999,-0.054772
523.8,-0.05556
524.0,-0.053159
524.2,-0.051831
524.3999999999999,-0.050327
524.5999999999999,-0.048161
524.8,-0.0484569999999999
525.0,-0.051158
525.2,-0.0535309999999999
525.3999999999999,-0.054468
525.5999999999999,-0.056103
525.8,-0.055872
526.0,-0.055408
526.2,-0.0541479999999999
526.3999999999999,-0.052455
526.5999999999999,-0.051158
526.8,-0.050694
527.0,-0.049576
527.2,-0.049444
527.3999999999999,-0.052483
527.5999999999999,-0.054305
527.8,-0.054916
528.0,-0.05452
528.2,-0.0544799999999999
528.3999999999999,-0.051327
528.5999999999999,-0.048139
528.8,-0.046929
529.0,-0.049794
529.2,-0.052769
529.3999999999999,-0.056584
529.5999999999999,-0.0591209999999999
529.8,-0.05956
530.0,-0.056605
530.2,-0.053262
530.3999999999999,-0.050964
530.5999999999999,-0.050749
530.8,-0.052014
531.0,-0.05288
531.2,-0.051073
531.3999999999999,-0.049162
531.5999999999999,-0.047812
531.8,-0.047424
532.0,-0.047835
532.2,-0.049512
532.3999999999999,-0.050814
532.5999999999999,-0.0519169999999999
532.8,-0.053255
533.0,-0.052804
533.2,-0.0542139999999999
533.3999999999999,-0.057047
533.5999999999999,-0.058941
533.8,-0.05883
534.0,-0.057664
534.2,-0.0565689999999999
534.3999999999999,-0.054494
534.5999999999999,-0.053239
534.8,-0.0517619999999999
535.0,-0.0526619999999999
535.2,-0.052257
535.3999999999999,-0.0539549999999999
535.5999999999999,-0.0561409999999999
535.8,-0.059699
536.0,-0.061661
536.2,-0.062045
536.3999999999999,-0.0583639999999999
536.5999999999999,-0.053505
536.8,-0.04935
537.0,-0.047785
537.2,-0.0485579999999999
537.3999999999999,-0.0498359999999999
537.5999999999999,-0.051889
537.8,-0.054819
538.0,-0.057845
538.2,-0.058051
538.3999999999999,-0.0573489999999999
538.5999999999999,-0.054883
538.8,-0.0516809999999999
539.0,-0.049592
539.2,-0.05015
539.3999999999999,-0.052534
539.5999999999999,-0.05556
539.8,-0.057213
540.0,-0.0560709999999999
540.2,-0.055301
540.3999999999999,-0.056015
540.5999999999999,-0.057574
540.8,-0.059791
541.0,-0.063871
541.2,-0.066479
541.3999999999999,-0.0655299999999999
541.5999999999999,-0.062281
541.8,-0.058313
542.0,-0.053302
542.2,-0.0511559999999999
542.3999999999999,-0.051667
542.5999999999999,-0.052257
542.8,-0.052868
543.0,-0.054594
543.2,-0.0555689999999999
543.3999999999999,-0.054352
543.5999999999999,-0.054319
543.8,-0.054112
544.0,-0.054047
544.2,-0.0521059999999999
544.3999999999999,-0.0507389999999999
544.5999999999999,-0.050153
544.8,-0.0505269999999999
545.0,-0.049947
545.2,-0.048772
545.3999999999999,-0.048552
545.5999999999999,-0.047825
545.8,-0.0482099999999999
546.0,-0.049647
546.2,-0.050684
546.3999999999999,-0.051935
546.5999999999999,-0.054293
546.8,-0.055624
547.0,-0.055655
547.2,-0.055754
547.3999999999999,-0.055593
547.5999999999999,-0.054582
547.8,-0.052414
548.0,-0.049173
548.2,-0.0490209999999999
548.3999999999999,-0.049564
548.5999999999999,-0.052568
548.8,-0.0553989999999999
549.0,-0.0595959999999999
549.2,-0.061736
549.3999999999999,-0.062285
549.5999999999999,-0.0612719999999999
549.8,-0.061529
550.0,-0.060481
550.2,-0.059846
550.3999999999999,-0.060228
550.5999999999999,-0.05789
550.8,-0.0546119999999999
551.0,-0.05275
551.2,-0.051301
551.3999999999999,-0.0506269999999999
551.5999999999999,-0.050776
551.8,-0.0522599999999999
552.0,-0.0542
552.2,-0.05507
552.3999999999999,-0.0542679999999999
552.5999999999999,-0.0564999999999999
552.8,-0.058111
553.0,-0.060304
553.2,-0.060729
553.3999999999999,-0.0609669999999999
553.5999999999999,-0.059502
553.8,-0.056919
554.0,-0.053414
554.2,-0.0519169999999999
554.3999999999999,-0.052869
554.5999999999999,-0.052016
554.8,-0.052813
555.0,-0.0535039999999999
555.2,-0.055069
555.3999999999999,-0.05402
555.5999999999999,-0.0531289999999999
555.8,-0.0516349999999999
556.0,-0.050665
556.2,-0.050131
556.3999999999999,-0.051314
556.5999999999999,-0.053011
556.8,-0.053364
557.0,-0.052999
557.2,-0.052305
557.3999999999999,-0.0518859999999999
557.5999999999999,-0.05176
557.8,-0.0508159999999999
558.0,-0.051109
558.2,-0.052167
558.3999999999999,-0.0519479999999999
558.5999999999999,-0.052149
558.8,-0.053516
559.0,-0.052109
559.2,-0.0499859999999999
559.3999999999999,-0.049494
559.5999999999999,-0.0502059999999999
559.8,-0.051136
560.0,-0.053458
560.2,-0.055674
560.3999999999999,-0.055858
560.5999999999999,-0.0548119999999999
560.8,-0.054178
561.0,-0.054822
561.2,-0.053925
561.3999999999999,-0.054387
561.5999999999999,-0.052613
561.8,-0.051943
562.0,-0.050042
562.2,-0.0506499999999999
562.3999999999999,-0.049007
562.5999999999999,-0.04981
562.8,-0.050271
563.0,-0.0493879999999999
563.2,-0.047667
563.3999999999999,-0.047715
563.5999999999999,-0.048916
563.8,-0.048673
564.0,-0.050935
564.2,-0.052562
564.3999999999999,-0.054091
564.5999999999999,-0.054692
564.8,-0.055491
565.0,-0.054285
565.2,-0.053074
565.3999999999999,-0.05156
565.5999999999999,-0.0487779999999999
565.8,-0.047629
566.0,-0.048898
566.2,-0.050061
566.3999999999999,-0.051869
566.5999999999999,-0.053818
566.8,-0.055019
567.0,-0.053563
567.2,-0.0531249999999999
567.3999999999999,-0.052606
567.5999999999999,-0.053189
567.8,-0.053032
568.0,-0.055077
568.2,-0.054472
568.3999999999999,-0.052892
568.5999999999999,-0.050564
568.8,-0.049896
569.0,-0.049383
569.2,-0.051429
569.3999999999999,-0.055293
569.5999999999999,-0.058358
569.8,-0.0607389999999999
570.0,-0.060572
570.2,-0.058904
570.3999999999999,-0.055576
570.5999999999999,-0.055041
570.8,-0.0551639999999999
571.0,-0.0553
571.2,-0.054252
571.3999999999999,-0.055449
571.5999999999999,-0.056842
571.8,-0.058184
572.0,-0.061616
572.2,-0.065232
572.3999999999999,-0.0670359999999999
572.5999999999999,-0.0673489999999999
572.8,-0.066326
573.0,-0.0629199999999999
573.2,-0.060702
573.3999999999999,-0.059445
573.5999999999999,-0.058038
573.8,-0.05569
574.0,-0.05573
574.1999999999998,-0.057146
574.3999999999999,-0.0579359999999999
574.5999999999999,-0.058892
574.8,-0.0601749999999999
575.0,-0.059516
575.1999999999998,-0.0581
575.3999999999999,-0.055912
575.5999999999999,-0.053999
575.8,-0.053968
576.0,-0.055503
576.1999999999998,-0.055086
576.3999999999999,-0.055204
576.5999999999999,-0.05393
576.8,-0.051409
577.0,-0.049057
577.1999999999998,-0.051116
577.3999999999999,-0.052903
577.5999999999999,-0.056629
577.8,-0.059664
578.0,-0.062176
578.1999999999998,-0.0601559999999999
578.3999999999999,-0.05923
578.5999999999999,-0.057691
578.8,-0.056047
579.0,-0.053177
579.1999999999998,-0.053231
579.3999999999999,-0.052966
579.5999999999999,-0.050788
579.8,-0.050819
580.0,-0.0528629999999999
580.1999999999998,-0.053711
580.3999999999999,-0.05385
580.5999999999999,-0.054539
580.8,-0.054858
581.0,-0.055126
581.1999999999998,-0.056868
581.3999999999999,-0.0582059999999999
581.5999999999999,-0.0594419999999999
581.8,-0.059551
582.0,-0.0591059999999999
582.1999999999998,-0.057309
582.3999999999999,-0.055518
582.5999999999999,-0.055139
582.8,-0.052792
583.0,-0.052784
583.1999999999998,-0.052821
583.3999999999999,-0.055227
583.5999999999999,-0.057709
583.8,-0.064029
584.0,-0.066205
584.1999999999998,-0.067269
584.3999999999999,-0.065294
584.5999999999999,-0.063887
584.8,-0.061714
585.0,-0.059599
585.1999999999998,-0.0580439999999999
585.3999999999999,-0.0565879999999999
585.5999999999999,-0.055286
585.8,-0.0530359999999999
586.0,-0.052356
586.1999999999998,-0.0528969999999999
586.3999999999999,-0.0538089999999999
586.5999999999999,-0.055016
586.8,-0.055092
587.0,-0.055939
587.1999999999998,-0.056827
587.3999999999999,-0.0608969999999999
587.5999999999999,-0.061609
587.8,-0.061915
588.0,-0.0607739999999999
588.1999999999998,-0.05944
588.3999999999999,-0.0561559999999999
588.5999999999999,-0.055472
588.8,-0.0581289999999999
589.0,-0.059672
589.1999999999998,-0.0589509999999999
589.3999999999999,-0.057386
589.5999999999999,-0.056273
589.8,-0.053005
590.0,-0.0514879999999999
590.1999999999998,-0.052956
590.3999999999999,-0.055726
590.5999999999999,-0.057678
590.8,-0.058582
591.0,-0.05915
591.1999999999998,-0.057234
591.3999999999999,-0.0541829999999999
591.5999999999999,-0.053485
591.8,-0.055472
592.0,-0.056427
592.1999999999998,-0.058641
592.3999999999999,-0.062118
592.5999999999999,-0.062042
592.8,-0.061804
593.0,-0.061285
593.1999999999998,-0.0607199999999999
593.3999999999999,-0.0577119999999999
593.5999999999999,-0.056445
593.8,-0.054575
594.0,-0.055618
594.1999999999998,-0.055823
594.3999999999999,-0.057001
594.5999999999999,-0.058045
594.8,-0.0611169999999999
595.0,-0.062702
595.1999999999998,-0.063278
595.3999999999999,-0.06425
595.5999999999999,-0.06337
595.8,-0.05902
596.0,-0.055468
596.1999999999998,-0.053454
596.3999999999999,-0.053486
596.5999999999999,-0.0539819999999999
596.8,-0.054965
597.0,-0.056139
597.1999999999998,-0.05671
597.3999999999999,-0.053888
597.5999999999999,-0.0511519999999999
597.8,-0.050435
598.0,-0.050085
598.1999999999998,-0.050765
598.3999999999999,-0.054243
598.5999999999999,-0.057769
598.8,-0.0577469999999999
599.0,-0.055487
599.1999999999998,-0.053517
599.3999999999999,-0.051313
