Time (s),Shift (nm)
0.0,0.0
0.1999999999999886,-0.0012599999999998
0.4000000000000341,0.0010479999999999
0.6000000000000227,0.0014659999999997
0.8000000000000114,0.001881
1.0,0.0019939999999998
1.1999999999999886,0.0040879999999998
1.400000000000034,0.0045730000000001
1.6000000000000227,0.0059339999999998
1.8000000000000114,0.0066890000000001
2.0,0.0059109999999997
2.1999999999999886,0.004877
2.400000000000034,0.005497
2.6000000000000227,0.0051009999999998
2.800000000000012,0.0039989999999998
3.0,0.0057309999999999
3.1999999999999886,0.0069179999999997
3.400000000000034,0.005624
3.6000000000000227,0.0039839999999999
3.8000000000000114,0.003902
4.0,0.0039609999999998
4.199999999999989,0.0031769999999999
4.400000000000034,0.0060859999999998
4.600000000000023,0.0091670000000001
4.800000000000011,0.009122
5.0,0.0085060000000001
5.199999999999989,0.010701
5.400000000000034,0.011473
5.600000000000023,0.011962
5.800000000000011,0.0137619999999998
6.0,0.0160089999999999
6.199999999999989,0.0145089999999998
6.400000000000034,0.0133079999999998
6.600000000000023,0.0134419999999999
6.800000000000011,0.0145729999999999
7.0,0.0151689999999997
7.199999999999989,0.0159199999999999
7.400000000000034,0.016235
7.600000000000023,0.0152019999999999
7.800000000000011,0.0125419999999998
8.0,0.007648
8.199999999999989,0.0056329999999999
8.400000000000034,0.0034130000000001
8.600000000000023,0.002088
8.800000000000011,0.0021079999999997
9.0,0.0066459999999999
9.199999999999989,0.0083809999999999
9.400000000000034,0.0093869999999998
9.600000000000025,0.0089579999999998
9.800000000000011,0.0104709999999998
10.0,0.0100440000000001
10.199999999999989,0.0105490000000001
10.400000000000034,0.0098120000000001
10.600000000000025,0.0079630000000001
10.800000000000011,0.0051429999999998
11.0,0.0017819999999999
11.199999999999989,0.0004520000000001
11.400000000000034,0.0027490000000001
11.600000000000025,0.005319
11.800000000000011,0.00726
12.0,0.0093049999999998
12.199999999999989,0.011765
12.400000000000034,0.0114100000000001
12.600000000000025,0.0135009999999997
12.800000000000011,0.0153639999999999
13.0,0.0169000000000001
13.199999999999989,0.0164249999999999
13.400000000000034,0.015905
13.600000000000025,0.0156809999999998
13.800000000000011,0.0143279999999998
14.0,0.0124159999999999
14.199999999999989,0.0122459999999997
14.400000000000034,0.012445
14.600000000000025,0.0094469999999997
14.800000000000011,0.0077289999999998
15.0,0.0068670000000001
15.199999999999989,0.0048989999999999
15.400000000000034,0.0021140000000001
15.600000000000025,0.0016769999999999
15.800000000000011,0.002088
16.0,0.0035609999999999
16.19999999999999,0.0063349999999999
16.400000000000034,0.0086309999999998
16.600000000000023,0.0114939999999998
16.80000000000001,0.011689
17.0,0.0116299999999998
17.19999999999999,0.009487
17.400000000000034,0.0105339999999998
17.600000000000023,0.0105840000000001
17.80000000000001,0.0115629999999997
18.0,0.0124319999999999
18.19999999999999,0.012877
18.400000000000038,0.0113240000000001
18.600000000000023,0.0096500000000001
18.80000000000001,0.008391
19.0,0.00624
19.19999999999999,0.0049529999999999
19.400000000000038,0.0038559999999998
19.600000000000023,0.005001
19.80000000000001,0.0086249999999998
20.0,0.0108769999999998
20.19999999999999,0.0113449999999999
20.400000000000038,0.0110099999999997
20.600000000000023,0.0102839999999999
20.80000000000001,0.0074320000000001
21.0,0.008035
21.19999999999999,0.0102980000000001
21.400000000000038,0.0123709999999999
21.600000000000023,0.0108220000000001
21.80000000000001,0.0083280000000001
22.0,0.0036429999999998
22.19999999999999,-0.0008789999999998
22.400000000000038,-0.0046379999999999
22.600000000000023,-0.00475
22.80000000000001,-0.0058660000000001
23.0,-0.005875
23.19999999999999,-0.0058850000000001
23.400000000000038,-0.004734
23.600000000000023,-0.0029859999999999
23.80000000000001,0.0014569999999998
24.0,0.0047410000000001
24.19999999999999,0.0075659999999997
24.400000000000038,0.0092289999999999
24.600000000000023,0.008779
24.80000000000001,0.0079829999999998
25.0,0.0064109999999999
25.19999999999999,0.0038219999999999
25.400000000000038,0.0012199999999999
25.600000000000023,-0.0005199999999998
25.80000000000001,-0.0007329999999998
26.0,0.0002170000000001
26.19999999999999,0.0030160000000001
26.400000000000038,0.0068649999999998
26.600000000000023,0.010361
26.80000000000001,0.011352
27.0,0.0113289999999999
27.19999999999999,0.0109979999999998
27.400000000000038,0.00991
27.600000000000023,0.0100869999999999
27.80000000000001,0.0112670000000001
28.0,0.01282
28.19999999999999,0.0131109999999998
28.400000000000038,0.0122109999999997
28.600000000000023,0.0090780000000001
28.80000000000001,0.0057390000000001
29.0,0.005049
29.19999999999999,0.0043349999999997
29.400000000000038,0.0036450000000001
29.600000000000023,0.0054609999999999
29.80000000000001,0.0073590000000001
30.0,0.006609
30.19999999999999,0.0051959999999997
30.400000000000038,0.0054789999999997
30.600000000000023,0.005001
30.80000000000001,0.0062009999999999
31.0,0.0075199999999999
31.19999999999999,0.0098219999999997
31.400000000000038,0.009389
31.600000000000023,0.0087559999999999
31.80000000000001,0.007489
32.0,0.0079159999999998
32.19999999999999,0.007422
32.400000000000034,0.0091649999999998
32.60000000000002,0.0104669999999997
32.80000000000001,0.0104319999999997
33.0,0.0096259999999999
33.19999999999999,0.010844
33.400000000000034,0.008887
33.60000000000002,0.0078119999999999
33.80000000000001,0.0060630000000001
34.0,0.0068479999999997
34.19999999999999,0.0046129999999999
34.400000000000034,0.0054020000000001
34.60000000000002,0.0080149999999998
34.80000000000001,0.0124949999999999
35.0,0.0121250000000001
35.19999999999999,0.0129719999999999
35.400000000000034,0.0133229999999997
35.60000000000002,0.010704
35.80000000000001,0.0066199999999998
36.0,0.0055689999999999
36.19999999999999,0.0058120000000001
36.400000000000034,0.0067639999999999
36.60000000000002,0.0087619999999999
36.80000000000001,0.010542
37.0,0.0105270000000001
37.19999999999999,0.0107179999999997
37.400000000000034,0.0105159999999999
37.60000000000002,0.009141
37.80000000000001,0.0074309999999999
38.0,0.0068449999999997
38.19999999999999,0.005802
38.400000000000034,0.005389
38.60000000000002,0.0040930000000001
38.80000000000001,0.0032969999999998
39.0,0.0022809999999999
39.19999999999999,0.0010259999999999
39.400000000000034,-0.0006430000000001
39.60000000000002,9.69999999997917e-05
39.80000000000001,0.001357
40.0,0.0009799999999997
40.19999999999999,0.000903
40.400000000000034,-0.0005619999999999
40.60000000000002,-0.0018090000000001
40.80000000000001,-0.0018609999999998
41.0,0.0005669999999997
41.19999999999999,0.0027479999999999
41.400000000000034,0.003962
41.60000000000002,0.0029819999999998
41.80000000000001,0.0028239999999999
42.0,0.0021819999999999
42.19999999999999,0.001443
42.400000000000034,0.0043600000000001
42.60000000000002,0.0067729999999999
42.80000000000001,0.0061529999999998
43.0,0.0050259999999999
43.19999999999999,0.00604
43.400000000000034,0.005522
43.60000000000002,0.0067149999999998
43.80000000000001,0.010777
44.0,0.013751
44.19999999999999,0.0132149999999997
44.400000000000034,0.0137489999999997
44.60000000000002,0.013408
44.80000000000001,0.012785
45.0,0.0130469999999998
45.19999999999999,0.0138539999999998
45.400000000000034,0.0112450000000001
45.60000000000002,0.0099019999999998
45.80000000000001,0.0076359999999997
46.0,0.0061390000000001
46.19999999999999,0.0036619999999998
46.400000000000034,0.0019779999999998
46.60000000000002,0.0016959999999999
46.80000000000001,0.0026639999999997
47.0,0.0023369999999998
47.19999999999999,0.002815
47.400000000000034,0.005506
47.60000000000002,0.0076200000000001
47.80000000000001,0.009341
48.0,0.0112849999999999
48.19999999999999,0.0136919999999998
48.400000000000034,0.0143109999999997
48.60000000000002,0.0127760000000001
48.80000000000001,0.0116179999999999
49.0,0.011775
49.19999999999999,0.0127909999999999
49.400000000000034,0.0145949999999999
49.60000000000002,0.0155759999999998
49.80000000000001,0.0138150000000001
50.0,0.0102519999999999
50.19999999999999,0.0076399999999998
50.400000000000034,0.0065620000000001
50.60000000000002,0.0072399999999999
50.80000000000001,0.0073940000000001
51.0,0.008931
51.19999999999999,0.008607
51.400000000000034,0.0062470000000001
51.60000000000002,0.0039470000000001
51.80000000000001,0.0042889999999999
52.0,0.0047209999999999
52.19999999999999,0.0060759999999997
52.400000000000034,0.007241
52.60000000000002,0.0097049999999998
52.80000000000001,0.011362
53.0,0.0120200000000001
53.19999999999999,0.0113609999999999
53.400000000000034,0.0144250000000001
53.60000000000002,0.0162749999999998
53.80000000000001,0.0178579999999999
54.0,0.0195229999999999
54.19999999999999,0.0211670000000001
54.400000000000034,0.0195249999999997
54.60000000000002,0.015902
54.80000000000001,0.0119099999999998
55.0,0.0106600000000001
55.19999999999999,0.0115959999999999
55.400000000000034,0.0116179999999999
55.60000000000002,0.0133809999999998
55.80000000000001,0.015241
56.0,0.014345
56.19999999999999,0.0121709999999999
56.400000000000034,0.01017
56.60000000000002,0.0061619999999997
56.80000000000001,0.002609
57.0,0.0010059999999998
57.19999999999999,0.0013429999999998
57.400000000000034,0.003972
57.60000000000002,0.0099040000000001
57.80000000000001,0.0137599999999999
58.0,0.0156100000000001
58.19999999999999,0.0154339999999999
58.400000000000034,0.0119059999999997
58.60000000000002,0.0079709999999999
58.80000000000001,0.0066449999999997
59.0,0.0049939999999999
59.19999999999999,0.0029759999999998
59.400000000000034,0.004585
59.60000000000002,0.006278
59.80000000000001,0.0085399999999999
60.0,0.011768
60.19999999999999,0.01479
60.400000000000034,0.0152800000000001
60.60000000000002,0.014504
60.80000000000001,0.0126330000000001
61.0,0.0107019999999997
61.19999999999999,0.007867
61.400000000000034,0.006472
61.60000000000002,0.0044509999999999
61.80000000000001,0.0020440000000001
62.00000000000006,0.0006189999999999
62.19999999999999,0.0019789999999999
62.400000000000034,0.0024889999999997
62.599999999999966,0.003263
62.80000000000001,0.005786
63.00000000000006,0.0078239999999998
63.19999999999999,0.0080119999999999
63.400000000000034,0.0080740000000001
63.599999999999966,0.009586
63.80000000000001,0.0079729999999997
64.00000000000006,0.0053209999999999
64.19999999999999,0.0034100000000001
64.40000000000003,0.0032929999999997
64.59999999999997,0.0032149999999999
64.80000000000001,0.0030709999999998
65.00000000000006,0.0024299999999999
65.19999999999999,0.0045609999999998
65.40000000000003,0.0040719999999998
65.59999999999997,0.0036580000000001
65.80000000000001,0.0057709999999997
66.00000000000006,0.009945
66.19999999999999,0.0115119999999997
66.40000000000003,0.013093
66.59999999999997,0.0109339999999997
66.80000000000001,0.0076559999999998
67.00000000000006,0.005227
67.19999999999999,0.0030359999999998
67.40000000000003,0.0028589999999999
67.59999999999997,0.0053130000000001
67.80000000000001,0.0051719999999999
68.00000000000006,0.0034429999999998
68.19999999999999,0.0017360000000001
68.40000000000003,-0.0012970000000001
68.59999999999997,-0.0028329999999998
68.80000000000001,1.3000000000040757e-05
69.00000000000006,0.0036429999999998
69.19999999999999,0.0042699999999999
69.40000000000003,0.0051860000000001
69.59999999999997,0.0052989999999999
69.80000000000001,0.0028030000000001
70.00000000000006,-0.0005429999999999
70.19999999999999,-8.499999999989072e-05
70.40000000000003,0.0023349999999999
70.59999999999997,0.002231
70.80000000000001,0.0045959999999998
71.00000000000006,0.0086529999999998
71.19999999999999,0.0112739999999997
71.40000000000003,0.0108519999999998
71.59999999999997,0.009643
71.80000000000001,0.0091229999999997
72.00000000000006,0.0058980000000001
72.19999999999999,0.0036819999999999
72.40000000000003,0.000261
72.59999999999997,7.999999999785956e-06
72.80000000000001,-0.002005
73.00000000000006,-0.0031280000000002
73.19999999999999,-0.0053930000000002
73.40000000000003,-0.0030700000000001
73.59999999999997,-0.0014189999999998
73.80000000000001,0.0004379999999999
74.00000000000006,0.0002740000000001
74.19999999999999,0.0017329999999997
74.40000000000003,0.0010089999999998
74.59999999999997,0.0028329999999998
74.80000000000001,0.005246
75.00000000000006,0.009897
75.19999999999999,0.0122889999999999
75.40000000000003,0.0147430000000001
75.59999999999997,0.0152800000000001
75.80000000000001,0.0150259999999997
76.00000000000006,0.0117379999999998
76.19999999999999,0.0099360000000001
76.40000000000003,0.0101309999999998
76.59999999999997,0.0091480000000001
76.80000000000001,0.008623
77.00000000000006,0.0077539999999998
77.19999999999999,0.0067639999999999
77.40000000000003,0.004693
77.59999999999997,0.0039159999999998
77.80000000000001,0.001713
78.00000000000006,0.0024939999999999
78.19999999999999,0.003543
78.40000000000003,0.00448
78.59999999999997,0.003813
78.80000000000001,0.0056579999999999
79.00000000000006,0.006348
79.19999999999999,0.0063219999999999
79.40000000000003,0.0037329999999999
79.59999999999997,0.0041809999999999
79.80000000000001,0.0045920000000001
80.00000000000006,0.0054750000000001
80.19999999999999,0.0048659999999998
80.40000000000003,0.0055610000000001
80.59999999999997,0.0041839999999999
80.80000000000001,0.0004110000000001
81.00000000000006,-0.0020299999999999
81.19999999999999,-0.003959
81.40000000000003,-0.0034290000000001
81.59999999999997,-0.001722
81.80000000000001,4.399999999993298e-05
82.00000000000006,0.0028890000000001
82.19999999999999,0.0057089999999999
82.40000000000003,0.0077280000000001
82.59999999999997,0.0094180000000001
82.80000000000001,0.0099979999999999
83.00000000000006,0.007247
83.19999999999999,0.005268
83.40000000000003,0.0035729999999998
83.59999999999997,-0.0009009999999998
83.80000000000001,-0.0021339999999998
84.00000000000006,-0.0018250000000001
84.19999999999999,-0.0011510000000001
84.40000000000003,-0.0026929999999998
84.59999999999997,-0.001411
84.80000000000001,0.0005999999999999
85.00000000000006,0.0029829999999999
85.19999999999999,0.0054089999999997
85.40000000000003,0.008197
85.59999999999997,0.010669
85.80000000000001,0.0108619999999999
86.00000000000006,0.0095800000000001
86.19999999999999,0.0085519999999998
86.40000000000003,0.0077929999999999
86.59999999999997,0.005624
86.80000000000001,0.0032640000000001
87.00000000000006,0.0031620000000001
87.19999999999999,0.0022280000000001
87.40000000000003,0.0007890000000001
87.59999999999997,0.0002840000000001
87.80000000000001,0.000696
88.00000000000006,-0.0005920000000001
88.19999999999999,1.700000000015578e-05
88.40000000000003,0.0027650000000001
88.59999999999997,0.0038900000000001
88.80000000000001,0.002437
89.00000000000006,0.0026129999999997
89.19999999999999,0.0020479999999998
89.40000000000003,0.0004949999999999
89.59999999999997,-0.0003039999999998
89.80000000000001,0.0007809999999999
90.00000000000006,0.0019200000000001
90.2,0.0020709999999999
90.40000000000003,-0.000458
90.59999999999997,-0.0026139999999998
90.8,-0.003149
91.00000000000006,-0.0040409999999999
91.2,-0.003527
91.40000000000003,-8.000000000008001e-05
91.59999999999997,0.002637
91.8,0.0048509999999999
92.00000000000006,0.0061299999999997
92.2,0.0061390000000001
92.40000000000003,0.006189
92.59999999999997,0.0047399999999999
92.8,0.000944
93.00000000000006,-0.0027680000000001
93.2,-0.0063179999999998
93.40000000000003,-0.0089809999999999
93.59999999999997,-0.0081109999999999
93.8,-0.0039310000000001
94.00000000000006,-0.0001030000000001
94.2,0.0030879999999999
94.40000000000003,0.0041449999999998
94.59999999999997,0.0050599999999998
94.8,0.0039069999999998
95.00000000000006,0.0029279999999998
95.2,0.0034779999999998
95.40000000000003,0.0040249999999999
95.59999999999997,0.0028350000000001
95.8,0.0023529999999998
96.00000000000006,0.0019870000000001
96.2,0.002895
96.40000000000003,0.0053549999999997
96.59999999999997,0.0062709999999999
96.8,0.0053739999999997
97.00000000000006,0.004534
97.2,0.0028779999999999
97.40000000000003,0.0016310000000001
97.59999999999997,0.0020009999999999
97.8,0.0020959999999998
98.00000000000006,0.0039699999999998
98.2,0.0066790000000001
98.40000000000003,0.0071129999999999
98.59999999999997,0.0071970000000001
98.8,0.009252
99.00000000000006,0.0100120000000001
99.2,0.0073539999999998
99.40000000000003,0.0056819999999997
99.59999999999997,0.0042889999999999
99.8,0.002037
100.00000000000006,0.0018099999999998
100.2,0.002361
100.40000000000003,0.0029449999999999
100.59999999999997,0.0040580000000001
100.8,0.005964
101.00000000000006,0.0045959999999998
101.2,0.003241
101.40000000000003,0.0021439999999999
101.59999999999997,0.001446
101.8,0.000318
102.00000000000006,-0.0018980000000001
102.2,-0.0042300000000001
102.40000000000003,-0.0053900000000002
102.59999999999997,-0.0047220000000001
102.8,-0.0048279999999998
103.00000000000006,-0.0036809999999998
103.2,-0.0006319999999999
103.40000000000003,0.0018949999999997
103.59999999999997,0.004753
103.8,0.0075530000000001
104.00000000000006,0.01038
104.2,0.0094129999999998
104.40000000000003,0.004985
104.59999999999997,0.0006140000000001
104.8,-0.001897
105.00000000000006,-0.0019900000000001
105.2,0.0014609999999999
105.40000000000003,0.0066039999999998
105.59999999999997,0.0074640000000001
105.8,0.00652
106.00000000000006,0.005487
106.2,0.0043470000000001
106.40000000000003,0.0041660000000001
106.59999999999997,0.005484
106.8,0.0073690000000001
107.00000000000006,0.009729
107.2,0.0093860000000001
107.40000000000003,0.0085600000000001
107.59999999999997,0.0082469999999998
107.8,0.0090099999999999
108.00000000000006,0.0061299999999997
108.2,0.0045250000000001
108.40000000000003,0.0056579999999999
108.59999999999997,0.0058609999999998
108.8,0.0051130000000001
109.00000000000006,0.004839
109.2,0.003918
109.40000000000003,0.0009969999999999
109.59999999999997,-0.0005000000000001
109.8,-0.0006279999999998
110.00000000000006,-0.0003570000000001
110.2,0.0008099999999999
110.40000000000003,0.0008089999999998
110.59999999999997,0.001595
110.8,0.0005540000000001
111.00000000000006,-0.0003359999999998
111.2,-0.0007410000000001
111.40000000000003,0.0005999999999999
111.59999999999997,-0.000925
111.8,-0.0004689999999998
112.00000000000006,0.0001959999999998
112.2,0.0008599999999998
112.40000000000003,0.0007329999999998
112.59999999999997,0.0038999999999997
112.8,0.0042149999999998
113.00000000000006,0.0041349999999997
113.2,0.0036559999999998
113.40000000000003,0.0025309999999998
113.59999999999997,-4.099999999995774e-05
113.8,-0.0008979999999998
114.00000000000006,-0.0011399999999999
114.2,-0.0008110000000001
114.40000000000003,-0.0010229999999999
114.59999999999997,-0.0002149999999998
114.8,0.0009329999999998
115.00000000000006,0.001875
115.2,0.0003859999999997
115.40000000000003,-0.0004460000000001
115.59999999999997,-0.0013610000000001
115.8,-0.0016180000000001
116.00000000000006,-0.0012500000000001
116.2,0.0004179999999998
116.40000000000003,0.0019230000000001
116.59999999999997,0.002094
116.8,0.0012659999999997
117.00000000000006,0.0003069999999998
117.2,0.0005790000000001
117.40000000000003,0.0010879999999997
117.59999999999997,0.0015779999999998
117.8,0.0021209999999998
118.00000000000006,0.0021149999999998
118.2,0.0019789999999999
118.40000000000003,0.0023010000000001
118.59999999999997,0.00346
118.8,0.0045079999999999
119.00000000000006,0.0052539999999998
119.2,0.0052970000000001
119.40000000000003,0.0043999999999999
119.59999999999997,0.0036610000000001
119.8,0.0021339999999998
120.00000000000006,0.002612
120.2,0.001354
120.40000000000003,0.0006399999999997
120.59999999999997,0.000604
120.8,0.0015830000000001
121.00000000000006,0.0022549999999998
121.2,0.004267
121.40000000000003,0.0068609999999997
121.59999999999997,0.0071810000000001
121.8,0.008013
122.00000000000006,0.0078040000000001
122.2,0.0083869999999999
122.40000000000003,0.0081950000000001
122.59999999999997,0.0075189999999998
122.8,0.0061409999999999
123.00000000000006,0.004035
123.2,0.0021919999999999
123.40000000000003,-0.0004659999999998
123.59999999999997,-7.100000000015427e-05
123.8,-0.0009350000000001
124.00000000000006,-0.0022130000000002
124.2,-0.0032580000000002
124.40000000000003,-0.0021529999999998
124.59999999999997,-0.0008340000000002
124.8,0.0011039999999997
125.00000000000006,0.0030749999999999
125.2,0.0042900000000001
125.40000000000003,0.0027379999999999
125.59999999999997,-0.0001959999999998
125.8,-0.000461
126.00000000000006,0.0003419999999998
126.2,5.299999999985872e-05
126.40000000000003,0.0012599999999998
126.59999999999997,0.0048349999999999
126.8,0.005805
127.00000000000006,0.005319
127.2,0.004788
127.40000000000003,0.0046019999999997
127.59999999999997,0.0022760000000001
127.8,-0.000731
128.00000000000006,-0.0021689999999998
128.2,-0.0027089999999998
128.40000000000003,-0.0032450000000001
128.59999999999997,-0.0042140000000001
128.8,-0.005443
129.00000000000006,-0.0087389999999998
129.2,-0.0075020000000001
129.40000000000003,-0.0043299999999999
129.59999999999997,-0.0022700000000002
129.8,0.0008979999999998
130.00000000000006,0.0048189999999999
130.2,0.00476
130.40000000000003,0.0033880000000001
130.59999999999997,0.003025
130.8,0.002091
131.00000000000006,0.0005920000000001
131.2,-0.0012639999999999
131.40000000000003,-0.0039099999999998
131.59999999999997,-0.0059960000000001
131.8,-0.005322
132.00000000000006,-0.000483
132.2,0.0032309999999999
132.40000000000003,0.0065879999999998
132.59999999999997,0.0085489999999999
132.8,0.008467
133.00000000000006,0.0080219999999999
133.2,0.0080209999999998
133.40000000000003,0.0097930000000001
133.59999999999997,0.0097169999999997
133.8,0.0100609999999998
134.00000000000006,0.0065149999999998
134.2,0.0033029999999998
134.40000000000003,-0.0016120000000001
134.59999999999997,-0.003559
134.8,-0.0071180000000001
135.00000000000006,-0.0074969999999998
135.2,-0.006269
135.40000000000003,-0.0053619999999998
135.59999999999997,-0.0042339999999998
135.8,-0.0020090000000001
136.00000000000006,-0.0015290000000001
136.2,-0.001417
136.40000000000003,-0.0001160000000002
136.59999999999997,-0.000175
136.8,-6.899999999987472e-05
137.00000000000006,0.0011670000000001
137.2,-0.0003280000000001
137.40000000000003,-0.0015330000000002
137.59999999999997,-0.0025849999999998
137.8,-0.003092
138.00000000000006,-0.0050829999999999
138.2,-0.0042590000000002
138.40000000000003,-0.0040770000000001
138.59999999999997,-0.0013320000000001
138.8,-0.000124
139.00000000000006,-0.001074
139.2,-0.0022489999999999
139.40000000000003,-0.003743
139.59999999999997,-0.004356
139.8,-0.0034320000000001
140.00000000000006,0.00089
140.2,0.0035720000000001
140.40000000000003,0.0063360000000001
140.59999999999997,0.0039769999999998
140.8,0.0014009999999999
141.00000000000006,-0.001179
141.2,-0.0022199999999998
141.40000000000003,-0.0014989999999999
141.59999999999997,0.0001839999999999
141.8,0.0012129999999999
142.00000000000006,0.0028730000000001
142.2,0.0057089999999999
142.40000000000003,0.0069219999999998
142.59999999999997,0.0085699999999997
142.8,0.007873
143.00000000000006,0.006294
143.2,0.0038759999999999
143.40000000000003,0.003247
143.59999999999997,0.0014989999999999
143.8,-0.000407
144.00000000000006,-0.0027669999999999
144.2,-0.0045700000000001
144.40000000000003,-0.0062109999999999
144.59999999999997,-0.006701
144.8,-0.0047450000000002
145.00000000000006,-0.0022320000000002
145.2,-0.0006469999999998
145.40000000000003,-0.0005570000000001
145.59999999999997,0.0016340000000001
145.8,0.0038019999999998
146.00000000000006,0.004896
146.2,0.0051309999999999
146.40000000000003,0.0036209999999998
146.59999999999997,0.0013269999999998
146.8,0.0013389999999997
147.00000000000006,-0.0004870000000001
147.2,-0.0028489999999998
147.40000000000003,-0.004861
147.59999999999997,-0.006345
147.8,-0.0092780000000001
148.00000000000006,-0.009551
148.2,-0.0085090000000001
148.40000000000003,-0.0056899999999999
148.59999999999997,-0.0048099999999999
148.8,-0.0039389999999999
149.00000000000006,-0.0021710000000001
149.2,0.0011079999999998
149.40000000000003,0.0012439999999998
149.59999999999997,0.0022639999999998
149.8,0.002364
150.00000000000006,0.0009049999999999
150.2,-0.0011309999999999
150.40000000000003,0.0008509999999999
150.59999999999997,0.0032619999999998
150.8,0.0036009999999997
151.00000000000006,0.00435
151.2,0.0043739999999998
151.40000000000003,0.0030549999999998
151.59999999999997,0.000169
151.8,-0.0013209999999999
152.00000000000006,-0.0034339999999999
152.2,-0.0049480000000001
152.40000000000003,-0.0063360000000001
152.59999999999997,-0.0055469999999999
152.8,-0.0038300000000002
153.00000000000006,-0.0012889999999998
153.2,-0.000601
153.40000000000003,-0.002307
153.59999999999997,-0.0047760000000001
153.8,-0.0078369999999998
154.00000000000006,-0.009141
154.2,-0.0086699999999999
154.40000000000003,-0.007263
154.59999999999997,-0.0075169999999999
154.8,-0.0057149999999999
155.00000000000006,-0.0041549999999999
155.2,-0.0031759999999998
155.40000000000003,0.0003079999999999
155.59999999999997,0.0035880000000001
155.8,0.004547
156.00000000000006,0.002132
156.2,-0.0016479999999998
156.40000000000003,-0.0045100000000002
156.59999999999997,-0.0042360000000001
156.8,-0.0037030000000002
157.00000000000006,-0.0032900000000002
157.2,0.0004360000000001
157.40000000000003,0.0021569999999999
157.59999999999997,0.0022060000000001
157.8,-0.0009879999999999
158.00000000000006,-0.0019059999999999
158.2,-0.004197
158.40000000000003,-0.0054660000000001
158.59999999999997,-0.006707
158.8,-0.0058120000000001
159.00000000000006,-0.006434
159.2,-0.0071050000000001
159.40000000000003,-0.0080919999999999
159.59999999999997,-0.0059970000000002
159.8,-0.0019209999999998
160.00000000000006,0.0020459999999999
160.2,0.005522
160.40000000000003,0.0067369999999997
160.59999999999997,0.0040979999999999
160.8,-0.0006949999999998
161.00000000000006,-0.0045060000000001
161.2,-0.0098440000000001
161.40000000000003,-0.0110070000000002
161.59999999999997,-0.0108070000000002
161.8,-0.0075340000000001
162.00000000000006,-0.0044490000000001
162.2,-0.0004189999999999
162.40000000000003,7.999999999785956e-06
162.59999999999997,-0.001014
162.8,-0.0033289999999999
163.00000000000006,-0.0046870000000001
163.2,-0.005789
163.40000000000003,-0.0067880000000002
163.59999999999997,-0.0074209999999999
163.8,-0.0060289999999998
164.00000000000006,-0.00502
164.2,-0.004096
164.40000000000003,-0.003711
164.59999999999997,-0.0043969999999999
164.8,-0.0040379999999999
165.00000000000006,-0.0034299999999998
165.2,-0.0028580000000002
165.40000000000003,-0.0037190000000002
165.59999999999997,-0.0018470000000001
165.8,-0.0024860000000002
166.00000000000006,-0.0031799999999999
166.2,-0.0059339999999998
166.40000000000003,-0.005665
166.59999999999997,-0.0056159999999998
166.8,-0.0050859999999999
167.00000000000006,-0.0039220000000002
167.2,-0.0005920000000001
167.40000000000003,0.0019679999999997
167.59999999999997,0.0012769999999999
167.8,0.0006669999999999
168.00000000000006,-0.000302
168.2,-0.00136
168.40000000000003,-0.003222
168.59999999999997,-0.0021439999999999
168.8,-0.0020609999999998
169.00000000000006,-0.0030260000000001
169.2,-0.0029690000000002
169.40000000000003,-0.00137
169.59999999999997,-0.002421
169.8,-0.004286
170.00000000000006,-0.00339
170.2,-0.003673
170.40000000000003,-0.0043259999999998
170.59999999999997,-0.0014899999999999
170.8,0.0004349999999999
171.00000000000006,-0.0023089999999998
171.2,-0.0036309999999999
171.40000000000003,-0.0059049999999998
171.59999999999997,-0.0092539999999998
171.8,-0.0096509999999998
172.00000000000006,-0.006431
172.2,-0.0034879999999999
172.40000000000003,0.0004309999999998
172.59999999999997,0.0041999999999999
172.8,0.0070559999999999
173.00000000000006,0.010599
173.2,0.0114579999999997
173.40000000000003,0.0097909999999998
173.59999999999997,0.008061
173.8,0.007098
174.00000000000006,0.0032
174.2,0.0007700000000001
174.40000000000003,0.0017200000000001
174.59999999999997,0.001973
174.8,0.0014469999999997
175.00000000000006,0.0015849999999999
175.2,0.0036079999999998
175.40000000000003,0.003851
175.59999999999997,0.0036230000000001
175.8,0.00258
176.00000000000006,0.0018029999999997
176.2,-8.799999999986596e-05
176.40000000000003,-0.0016660000000001
176.59999999999997,-0.002787
176.8,-0.004213
177.00000000000006,-0.0044940000000002
177.2,-0.0045649999999999
177.40000000000003,-0.00434
177.59999999999997,-0.004804
177.8,-0.00557
178.00000000000006,-0.0077090000000001
178.2,-0.010834
178.40000000000003,-0.0121899999999999
178.59999999999997,-0.0116100000000001
178.8,-0.0082940000000002
179.00000000000006,-0.0044729999999999
179.2,-0.0027279999999998
179.40000000000003,-0.004823
179.59999999999997,-0.0076140000000002
179.8,-0.0094560000000001
180.00000000000006,-0.0110749999999999
180.2,-0.0125000000000001
180.40000000000003,-0.0104990000000002
180.6,-0.0090249999999998
180.8,-0.008709
181.00000000000009,-0.0086629999999998
181.2,-0.007295
181.40000000000003,-0.0069829999999999
181.6,-0.0035690000000001
181.8,-0.0020579999999998
182.00000000000009,5.299999999985872e-05
182.2,0.002078
182.40000000000003,0.004204
182.6,0.0034929999999997
182.8,0.0036809999999998
183.00000000000009,0.0032589999999999
183.2,0.003816
183.40000000000003,0.0057580000000001
183.6,0.0059529999999998
183.8,0.0059759999999999
184.00000000000009,0.0046810000000001
184.2,0.0019059999999999
184.40000000000003,-0.0019040000000001
184.6,-0.0036849999999999
184.8,-0.0033669999999998
185.00000000000009,-0.0027620000000001
185.2,-0.000556
185.40000000000003,0.001163
185.6,0.0031910000000001
185.8,-0.00055
186.00000000000009,-0.0022449999999998
186.2,-0.0033410000000002
186.40000000000003,-0.0041160000000002
186.6,-0.004664
186.8,-0.0012259999999999
187.00000000000009,-0.000623
187.2,-0.0013420000000001
187.40000000000003,-0.0031940000000001
187.6,-0.0036849999999999
187.8,-0.0042240000000002
188.00000000000009,-0.0033699999999998
188.2,-0.0018030000000002
188.40000000000003,0.0005760000000001
188.6,0.0012159999999998
188.8,-0.0001449999999998
189.00000000000009,0.0010419999999999
189.2,0.00326
189.40000000000003,0.006647
189.6,0.0084140000000001
189.8,0.0115579999999999
190.00000000000009,0.0103939999999997
190.2,0.0069759999999998
190.40000000000003,0.001891
190.6,-0.001503
190.8,-0.0048810000000001
191.00000000000009,-0.0074369999999999
191.2,-0.0082539999999999
191.40000000000003,-0.0081989999999998
191.6,-0.0092940000000001
191.8,-0.0092340000000001
192.00000000000009,-0.0075500000000001
192.2,-0.0069050000000001
192.40000000000003,-0.0061050000000002
192.6,-0.0052080000000001
192.8,-0.0043570000000001
193.00000000000009,-0.0038559999999998
193.2,-0.0030169999999998
193.40000000000003,-0.0024350000000001
193.6,-0.0019680000000001
193.8,-0.0024269999999999
194.00000000000009,-0.002806
194.2,-0.0026929999999998
194.40000000000003,-0.0031050000000001
194.6,-0.0034610000000001
194.8,-0.0043649999999999
195.00000000000009,-0.0039549999999999
195.2,-0.0055640000000001
195.40000000000003,-0.0057049999999998
195.6,-0.0049589999999999
195.8,-0.0022619999999999
196.00000000000009,-0.0021740000000001
196.2,-0.0004949999999999
196.40000000000003,0.0011849999999999
196.6,0.002339
196.8,0.0016449999999998
197.00000000000009,0.0032719999999999
197.2,0.0048369999999997
197.40000000000003,0.0051749999999999
197.6,0.003193
197.8,0.0029430000000001
198.00000000000009,0.0031759999999998
198.2,0.0029379999999998
198.40000000000003,0.000671
198.6,0.000401
198.8,-0.0003990000000002
199.00000000000009,-0.003654
199.2,-0.0074879999999999
199.40000000000003,-0.009535
199.6,-0.010736
199.8,-0.0115389999999999
200.00000000000009,-0.0101040000000001
200.2,-0.004188
200.40000000000003,0.0037630000000001
200.6,0.010612
200.8,0.0134240000000001
201.00000000000009,0.0136349999999998
201.2,0.0115929999999999
201.40000000000003,0.0049359999999998
201.6,-0.0016920000000002
201.8,-0.006291
202.00000000000009,-0.0086249999999998
202.2,-0.0126689999999998
202.40000000000003,-0.0149020000000001
202.6,-0.0155370000000001
202.8,-0.0138289999999998
203.00000000000009,-0.0113319999999998
203.2,-0.0082059999999999
203.40000000000003,-0.005748
203.6,-0.002707
203.8,-0.0013649999999998
204.00000000000009,-0.0017529999999998
204.2,-0.0028049999999999
204.40000000000003,-0.002529
204.6,-0.0026260000000002
204.8,-0.0023710000000001
205.00000000000009,-0.0016790000000002
205.2,-0.0010340000000002
205.40000000000003,-0.00198
205.6,-0.0032510000000001
205.8,-0.0036969999999998
206.00000000000009,-0.0029150000000002
206.2,-0.0010319999999999
206.40000000000003,0.0019219999999999
206.6,0.0037419999999999
206.8,0.003892
207.00000000000009,0.000118
207.2,-0.003012
207.40000000000003,-0.0033910000000001
207.6,-0.0040529999999998
207.8,-0.004607
208.00000000000009,-0.0021580000000001
208.2,-0.0014479999999998
208.40000000000003,-0.0029720000000001
208.6,-0.0041630000000001
208.8,-0.003867
209.00000000000009,-0.0052120000000002
209.2,-0.005058
209.40000000000003,-0.0047429999999999
209.6,-0.002723
209.8,-0.0041950000000001
210.00000000000009,-0.0048279999999998
210.2,-0.0034640000000001
210.40000000000003,-0.002885
210.6,-0.0032230000000001
210.8,-0.0021189999999999
211.00000000000009,-0.0010029999999998
211.2,-0.003743
211.40000000000003,-0.0052259999999999
211.6,-0.0072969999999998
211.8,-0.007368
212.00000000000009,-0.007759
212.2,-0.0071560000000001
212.40000000000003,-0.0073880000000001
212.6,-0.0093489999999998
212.8,-0.0113289999999999
213.00000000000009,-0.0123269999999999
213.2,-0.0120249999999999
213.40000000000003,-0.0122339999999998
213.6,-0.0081000000000002
213.8,-0.0042469999999998
214.00000000000009,-0.0027669999999999
214.2,-0.0011890000000001
214.40000000000003,0.0011169999999998
214.6,0.0034519999999997
214.8,0.0033750000000001
215.00000000000009,0.003622
215.2,0.0019119999999999
215.40000000000003,-0.0011200000000002
215.6,-0.0057529999999998
215.8,-0.007667
216.00000000000009,-0.0073639999999999
216.2,-0.0068109999999999
216.40000000000003,-0.0057610000000001
216.6,-0.0067469999999998
216.8,-0.0091239999999999
217.00000000000009,-0.0108190000000001
217.2,-0.0121630000000001
217.40000000000003,-0.01106
217.6,-0.009541
217.8,-0.0064579999999998
218.00000000000009,-0.0050439999999998
218.2,-0.0037959999999999
218.40000000000003,-0.0030230000000002
218.6,-0.0008310000000002
218.8,-0.0015999999999998
219.00000000000009,-0.0037950000000002
219.2,-0.005481
219.40000000000003,-0.003759
219.6,-0.0007860000000001
219.8,0.002024
220.00000000000009,0.005176
220.2,0.0058120000000001
220.40000000000003,0.0011450000000001
220.6,-0.0054750000000001
220.8,-0.00903
221.00000000000009,-0.0121570000000001
221.2,-0.0127960000000002
221.40000000000003,-0.0109759999999998
221.6,-0.0077859999999998
221.8,-0.0066600000000001
222.00000000000009,-0.0070079999999999
222.2,-0.0061659999999998
222.40000000000003,-0.0068969999999999
222.6,-0.0077229999999999
222.8,-0.006888
223.00000000000009,-0.0018890000000002
223.2,0.0006559999999997
223.40000000000003,0.0008529999999997
223.6,-0.0007890000000001
223.8,-0.0022419999999998
224.00000000000009,-0.0052929999999999
224.2,-0.0088270000000001
224.40000000000003,-0.0103089999999999
224.6,-0.0083899999999998
224.8,-0.0071210000000001
225.00000000000009,-0.0065159999999999
225.2,-0.0054639999999999
225.40000000000003,-0.0034469999999999
225.6,-0.0034330000000002
225.8,-0.0032520000000002
226.00000000000009,-0.004442
226.2,-0.0045480000000002
226.40000000000003,-0.0061789999999999
226.6,-0.0067650000000001
226.8,-0.008585
227.00000000000009,-0.0071340000000001
227.2,-0.0063080000000002
227.40000000000003,-0.003082
227.6,-0.0027810000000001
227.8,-0.001592
228.00000000000009,-0.003193
228.2,-0.0027720000000002
228.40000000000003,-0.0025050000000002
228.6,-0.0017909999999998
228.8,-0.000753
229.00000000000009,0.00102
229.2,0.0002010000000001
229.40000000000003,-0.0027539999999999
229.6,-0.0026450000000002
229.8,-0.0022999999999999
230.00000000000009,-0.0038179999999998
230.2,-0.0042659999999998
230.40000000000003,-0.0043229999999998
230.6,-0.0040369999999998
230.8,-0.002491
231.00000000000009,0.002107
231.2,0.0049239999999999
231.40000000000003,0.007657
231.6,0.0071699999999998
231.8,0.0056319999999998
232.00000000000009,0.0030489999999998
232.2,0.0017960000000001
232.40000000000003,0.002491
232.6,0.0036109999999998
232.8,0.0048179999999997
233.00000000000009,0.0041899999999999
233.2,0.003654
233.40000000000003,0.0015709999999997
233.6,-0.0016500000000001
233.8,-0.0075720000000001
234.00000000000009,-0.0095629999999999
234.2,-0.0096660000000001
234.40000000000003,-0.0092180000000001
234.6,-0.00828
234.8,-0.0048989999999999
235.00000000000009,-0.002758
235.2,-0.002933
235.40000000000003,-0.0027539999999999
235.6,-0.0024649999999999
235.8,-0.001065
236.00000000000009,-0.0008699999999999
236.2,-0.0006270000000001
236.40000000000003,-0.0011589999999999
236.6,0.0008219999999998
236.8,0.00068
237.00000000000009,-0.0013520000000002
237.2,-0.0038849999999999
237.40000000000003,-0.0067530000000002
237.6,-0.0092400000000001
237.8,-0.0113409999999998
238.00000000000009,-0.0103849999999998
238.2,-0.0080529999999998
238.40000000000003,-0.0019499999999998
238.6,-0.0002010000000001
238.8,0.0003829999999998
239.00000000000009,9.799999999993148e-05
239.2,-0.0012440000000002
239.40000000000003,-0.0058549999999999
239.6,-0.0085459999999999
239.8,-0.0096169999999999
240.00000000000009,-0.01018
240.2,-0.0084680000000001
240.40000000000003,-0.0083769999999998
240.6,-0.0086140000000001
240.8,-0.0070000000000001
241.00000000000009,-0.0039859999999998
241.2,-0.0021680000000001
241.40000000000003,-0.00156
241.6,0.0005749999999999
241.8,0.0017800000000001
242.00000000000009,0.0013779999999998
242.2,-2.300000000010627e-05
242.40000000000003,-0.0008530000000002
242.6,-0.0010780000000001
242.8,-0.0017339999999999
243.00000000000009,-0.0020069999999998
243.2,-0.0012599999999998
243.40000000000003,0.0008590000000001
243.6,0.0004379999999999
243.8,-0.0022969999999999
244.00000000000009,-0.002278
244.2,-0.0013510000000001
244.40000000000003,0.0010620000000001
244.6,0.003419
244.8,0.0061689999999998
245.00000000000009,0.006358
245.2,0.0036709999999997
245.40000000000003,-0.0005269999999999
245.6,-0.0026730000000001
245.8,-0.0039600000000001
246.00000000000009,-0.0042900000000001
246.2,-0.0032269999999998
246.40000000000003,-0.00014
246.6,-0.000868
246.8,-0.0009139999999998
247.00000000000009,-0.0024839999999999
247.2,-0.002005
247.40000000000003,-0.0040080000000002
247.6,-0.0013320000000001
247.8,-0.0005839999999999
248.00000000000009,-0.000906
248.2,-0.002043
248.40000000000003,-0.0016709999999999
248.6,-0.00394
248.8,-0.0062299999999999
249.00000000000009,-0.0073739999999999
249.2,-0.0106049999999999
249.40000000000003,-0.0143149999999998
249.6,-0.0157359999999999
249.8,-0.0164339999999998
250.00000000000009,-0.0177659999999999
250.2,-0.0187699999999999
250.40000000000003,-0.0176349999999998
250.6,-0.0186049999999999
250.8,-0.0173119999999999
251.00000000000009,-0.0154469999999999
251.2,-0.011927
251.40000000000003,-0.0086469999999998
251.6,-0.0061300000000001
251.8,-0.006075
252.00000000000009,-0.008099
252.2,-0.0105300000000001
252.40000000000003,-0.0115319999999998
252.6,-0.0086859999999999
252.8,-0.0038469999999999
253.00000000000009,0.00272
253.2,0.0072739999999997
253.40000000000003,0.0060379999999997
253.6,0.0022609999999998
253.8,-0.0033229999999999
254.00000000000009,-0.0079129999999998
254.2,-0.009694
254.40000000000003,-0.0089009999999998
254.6,-0.00523
254.8,-0.0030610000000002
255.00000000000009,-0.0032049999999999
255.2,-0.0038800000000001
255.40000000000003,-0.0044590000000002
255.6,-0.0083579999999998
255.8,-0.0079229999999999
256.00000000000006,-0.0043540000000001
256.2,-0.0013960000000001
256.40000000000003,0.0002629999999999
256.6,0.0022539999999997
256.8,0.0011649999999998
257.00000000000006,-0.000464
257.2,-0.0022000000000002
257.40000000000003,-0.0034800000000001
257.6,-0.00313
257.8,-0.0018489999999999
258.00000000000006,-0.0007179999999999
258.2,-0.0005619999999999
258.40000000000003,0.0016249999999997
258.6,0.0028829999999997
258.8,0.0031659999999997
259.00000000000006,0.001999
259.2,0.003298
259.40000000000003,0.0043069999999998
259.6,0.0032579999999997
259.8,0.0013079999999998
260.00000000000006,-0.0003869999999999
260.2,-0.0030350000000001
260.40000000000003,-0.0050479999999999
260.6,-0.0060069999999998
260.8,-0.0052259999999999
261.00000000000006,-0.0033539999999998
261.2,-0.0021940000000002
261.40000000000003,-0.0044910000000002
261.6,-0.0049130000000001
261.8,-0.004836
262.00000000000006,-0.0056889999999998
262.2,-0.0063089999999998
262.40000000000003,-0.0059149999999998
262.6,-0.007187
262.8,-0.0106769999999998
263.00000000000006,-0.0127079999999999
263.2,-0.0130219999999998
263.40000000000003,-0.0109379999999998
263.6,-0.0086629999999998
263.8,-0.007025
264.00000000000006,-0.0054859999999998
264.2,-0.00685
264.40000000000003,-0.0093960000000001
264.6,-0.011476
264.8,-0.0106730000000001
265.00000000000006,-0.0101490000000001
265.2,-0.0064160000000001
265.40000000000003,-0.0030969999999999
265.6,-0.0001820000000001
265.8,0.0021889999999999
266.00000000000006,0.00415
266.2,0.001808
266.40000000000003,-0.0009480000000001
266.6,-0.0037570000000002
266.8,-0.0046910000000002
267.00000000000006,-0.0043449999999998
267.2,-0.0014210000000001
267.40000000000003,0.0023439999999999
267.6,0.0053329999999998
267.8,0.0051540000000001
268.00000000000006,0.0042399999999997
268.2,0.002555
268.40000000000003,-0.0002490000000001
268.6,-0.0040080000000002
268.8,-0.0056159999999998
269.00000000000006,-0.0072079999999998
269.2,-0.0089570000000001
269.40000000000003,-0.0088789999999998
269.6,-0.0066749999999999
269.8,-0.0056530000000001
270.00000000000006,-0.005732
270.2,-0.0052530000000001
270.40000000000003,-0.0048639999999999
270.6,-0.0042149999999998
270.8,-0.004807
271.00000000000006,-0.0060329999999999
271.2,-0.0057770000000001
271.40000000000003,-0.0050059999999998
271.6,-0.0044529999999998
271.8,-0.0040659999999999
272.00000000000006,-0.0028709999999998
272.2,-0.0037349999999998
272.40000000000003,-0.004782
272.6,-0.0048370000000002
272.8,-0.0027659999999998
273.00000000000006,-0.0021400000000002
273.2,-0.001058
273.40000000000003,-6.4000000000064e-05
273.6,-0.0011510000000001
273.8,-0.0015640000000001
274.00000000000006,-0.0010159999999999
274.2,2.69999999997772e-05
274.40000000000003,0.0003039999999998
274.6,0.000842
274.8,0.000747
275.00000000000006,0.0001359999999999
275.2,-0.001862
275.40000000000003,-0.0039609999999998
275.6,-0.0043799999999998
275.8,-0.0053719999999999
276.00000000000006,-0.0049969999999999
276.2,-0.0028570000000001
276.40000000000003,-0.0002560000000002
276.6,-0.000582
276.8,0.0001980000000001
277.00000000000006,-0.0006219999999999
277.2,-0.0006620000000001
277.40000000000003,-0.0024450000000002
277.6,-0.0031820000000002
277.8,-0.0046650000000001
278.00000000000006,-0.0042339999999998
278.2,-0.006555
278.40000000000003,-0.0088599999999998
278.6,-0.011416
278.8,-0.013989
279.00000000000006,-0.016826
279.2,-0.0182829999999998
279.40000000000003,-0.018062
279.6,-0.014752
279.8,-0.012267
280.00000000000006,-0.0110049999999999
280.2,-0.0089640000000001
280.40000000000003,-0.007095
280.6,-0.0078010000000001
280.8,-0.0091529999999999
281.00000000000006,-0.0098760000000002
281.2,-0.0112360000000002
281.40000000000003,-0.0113780000000001
281.6,-0.008779
281.8,-0.004061
282.00000000000006,-0.0007939999999999
282.2,-8.000000000008001e-05
282.40000000000003,-0.000807
282.6,-0.005395
282.8,-0.0089420000000002
283.00000000000006,-0.011857
283.2,-0.0113479999999999
283.40000000000003,-0.010698
283.6,-0.007114
283.8,-0.0071630000000002
284.00000000000006,-0.0053170000000002
284.2,-0.0048270000000001
284.40000000000003,-0.0044469999999998
284.6,-0.004169
284.8,-0.0007960000000002
285.00000000000006,0.0019719999999998
285.2,0.0026389999999998
285.40000000000003,0.0013779999999998
285.6,-0.0007960000000002
285.8,-0.0024419999999998
286.00000000000006,-0.0045830000000002
286.2,-0.0030329999999998
286.40000000000003,-0.0004900000000001
286.6,0.0015939999999998
286.8,-3.300000000017178e-05
287.00000000000006,-0.0012759999999998
287.2,-0.0048970000000001
287.40000000000003,-0.0056039999999999
287.6,-0.0065089999999998
287.8,-0.005824
288.00000000000006,-0.0044669999999999
288.2,-0.0026199999999998
288.40000000000003,-0.003139
288.6,-0.005268
288.8,-0.0032589999999999
289.00000000000006,-0.0026199999999998
289.2,-0.0003410000000001
289.40000000000003,0.0001929999999998
289.6,0.0026609999999998
289.8,0.0012419999999999
290.00000000000006,-0.0022290000000002
290.2,-0.005935
290.40000000000003,-0.0056250000000002
290.6,-0.003927
290.8,-0.0025729999999999
291.00000000000006,5.999999999950489e-06
291.2,0.0025539999999999
291.40000000000003,0.003981
291.6,0.005173
291.8,0.0047419999999998
292.00000000000006,0.0048639999999999
292.2,0.0025539999999999
292.40000000000003,-0.000261
292.6,-0.0029569999999998
292.8,-0.003082
293.00000000000006,-0.0041809999999999
293.2,-0.004661
293.40000000000003,-0.007864
293.6,-0.0111280000000002
293.8,-0.0138419999999999
294.00000000000006,-0.013036
294.2,-0.0136440000000002
294.40000000000003,-0.0111020000000001
294.6,-0.008976
294.8,-0.0076100000000001
295.00000000000006,-0.0089930000000002
295.2,-0.0083060000000001
295.40000000000003,-0.007479
295.6,-0.0061949999999999
295.8,-0.0053139999999998
296.00000000000006,-0.0045589999999999
296.2,-0.0041280000000001
296.40000000000003,-0.0043730000000001
296.6,-0.0066809999999999
296.8,-0.0080919999999999
297.00000000000006,-0.0084569999999999
297.2,-0.00814
297.40000000000003,-0.0092929999999999
297.6,-0.0102850000000001
297.8,-0.0115549999999999
298.00000000000006,-0.0108619999999999
298.2,-0.0117869999999999
298.40000000000003,-0.0128059999999998
298.6,-0.0131139999999998
298.8,-0.0115180000000001
299.00000000000006,-0.0121459999999999
299.2,-0.0103550000000001
299.40000000000003,-0.0077509999999998
299.6,-0.00421
299.8,-0.0049049999999999
299.99999999999994,-0.0033309999999999
300.2,-0.0018850000000001
300.3999999999999,-0.0009110000000001
300.6,0.000701
300.8,0.002097
300.99999999999994,0.0022769999999998
301.2,0.0024429999999999
301.3999999999999,0.0033659999999999
301.6,0.002283
301.8,0.00306
301.99999999999994,0.00655
302.2,0.008189
302.3999999999999,0.0058309999999999
302.6,0.0040189999999999
302.8,0.0011639999999999
302.99999999999994,-0.003883
303.2,-0.006758
303.3999999999999,-0.0068639999999999
303.6,-0.005835
303.8,-0.0066250000000001
303.99999999999994,-0.00509
304.2,-0.003803
304.3999999999999,-0.002896
304.6,-0.0019880000000001
304.8,0.0003999999999999
304.99999999999994,0.000237
305.2,5.699999999997374e-05
305.3999999999999,9.999999999177334e-07
305.6,-0.000806
305.8,-0.001438
305.99999999999994,-0.0020740000000001
306.2,-0.0033210000000001
306.3999999999999,-0.0037979999999999
306.6,-0.005589
306.8,-0.0067190000000001
306.99999999999994,-0.006467
307.2,-0.006772
307.3999999999999,-0.0083239999999999
307.6,-0.007322
307.8,-0.005892
307.99999999999994,-0.006089
308.2,-0.0081029999999999
308.3999999999999,-0.007519
308.6,-0.007314
308.8,-0.0077910000000001
308.99999999999994,-0.010367
309.2,-0.0106220000000001
309.3999999999999,-0.0095039999999999
309.6,-0.007511
309.8,-0.0059759999999999
309.99999999999994,-0.0035990000000001
310.2,-0.0009749999999999
310.3999999999999,-0.0016530000000001
310.6,-0.0028730000000001
310.8,-0.003443
310.99999999999994,-0.001767
311.2,-0.001686
311.3999999999999,-0.0022409999999999
311.6,-0.003549
311.8,-0.0073210000000001
311.99999999999994,-0.0114590000000001
312.2,-0.011495
312.3999999999999,-0.0115469999999999
312.6,-0.011436
312.8,-0.0075469999999999
312.99999999999994,-0.003281
313.2,-0.00408
313.3999999999999,-0.004348
313.6,-0.007773
313.8,-0.01146
313.99999999999994,-0.013468
314.2,-0.011524
314.3999999999999,-0.0108030000000001
314.6,-0.0098139999999999
314.8,-0.0117249999999999
314.99999999999994,-0.0140109999999999
315.2,-0.0143299999999999
315.3999999999999,-0.0130970000000001
315.6,-0.01113
315.8,-0.0095940000000001
315.99999999999994,-0.008761
316.2,-0.012726
316.3999999999999,-0.0151890000000001
316.6,-0.0149190000000001
316.8,-0.011495
316.99999999999994,-0.0102010000000001
317.2,-0.0084360000000001
317.3999999999999,-0.009047
317.6,-0.009948
317.8,-0.0128490000000001
317.99999999999994,-0.0144159999999999
318.2,-0.0162459999999999
318.3999999999999,-0.016415
318.6,-0.016035
318.8,-0.013983
318.99999999999994,-0.012942
319.2,-0.011994
319.3999999999999,-0.011392
319.6,-0.0119009999999999
319.8,-0.0139770000000001
319.99999999999994,-0.014745
320.2,-0.012887
320.3999999999999,-0.013727
320.6,-0.0149129999999999
320.8,-0.0141200000000001
320.99999999999994,-0.013587
321.2,-0.0153100000000001
321.3999999999999,-0.0148270000000001
321.6,-0.0124589999999999
321.8,-0.0105269999999999
321.99999999999994,-0.010075
322.2,-0.00834
322.3999999999999,-0.007546
322.6,-0.0095530000000001
322.8,-0.008566
322.99999999999994,-0.005676
323.2,-0.0027680000000001
323.3999999999999,0.000218
323.6,0.0038089999999999
323.8,0.0023029999999999
323.99999999999994,0.0007029999999998
324.2,-0.0035
324.3999999999999,-0.0048639999999999
324.6,-0.0056
324.8,-0.004469
324.99999999999994,-0.0059409999999999
325.2,-0.0067559999999999
325.3999999999999,-0.0091750000000001
325.6,-0.0113499999999999
325.8,-0.0114739999999999
325.99999999999994,-0.010224
326.2,-0.0086760000000001
326.3999999999999,-0.0085079999999999
326.6,-0.0077519999999999
326.8,-0.009001
326.99999999999994,-0.0091849999999999
327.2,-0.0084049999999999
327.3999999999999,-0.008747
327.6,-0.010035
327.8,-0.0115279999999999
327.99999999999994,-0.0123759999999999
328.2,-0.0125330000000001
328.3999999999999,-0.008332
328.6,-0.007155
328.8,-0.006556
328.99999999999994,-0.007586
329.2,-0.008145
329.3999999999999,-0.0126129999999999
329.6,-0.013708
329.8,-0.0137640000000001
329.99999999999994,-0.0135880000000001
330.2,-0.0145090000000001
330.3999999999999,-0.012477
330.6,-0.010477
330.8,-0.0099850000000001
330.99999999999994,-0.0099150000000001
331.2,-0.0096260000000001
331.3999999999999,-0.0084980000000001
331.6,-0.0080660000000001
331.8,-0.0092
331.99999999999994,-0.010971
332.2,-0.013023
332.3999999999999,-0.0160599999999999
332.6,-0.015714
332.8,-0.0125239999999999
332.99999999999994,-0.008288
333.2,-0.004199
333.3999999999999,-0.0012
333.6,-0.002625
333.8,-0.004863
333.99999999999994,-0.0071080000000001
334.2,-0.007916
334.3999999999999,-0.008264
334.6,-0.007281
334.8,-0.005621
334.99999999999994,-0.003268
335.2,-0.0033100000000001
335.3999999999999,-0.0052130000000001
335.6,-0.00733
335.8,-0.0087190000000001
335.99999999999994,-0.009271
336.2,-0.009179
336.3999999999999,-0.0070400000000001
336.6,-0.0046399999999999
336.8,-0.0066049999999999
336.99999999999994,-0.008912
337.2,-0.0098249999999999
337.3999999999999,-0.010002
337.6,-0.009959
337.8,-0.0079409999999999
337.99999999999994,-0.0072940000000001
338.2,-0.0084319999999999
338.3999999999999,-0.0106749999999999
338.6,-0.0134929999999999
338.8,-0.0139089999999999
338.99999999999994,-0.013192
339.2,-0.0130380000000001
339.3999999999999,-0.012985
339.6,-0.011074
339.8,-0.0080280000000001
339.99999999999994,-0.007953
340.2,-0.006547
340.3999999999999,-0.007336
340.6,-0.0085889999999999
340.8,-0.012777
340.99999999999994,-0.0143440000000001
341.2,-0.015883
341.3999999999999,-0.0161120000000001
341.6,-0.0168060000000001
341.8,-0.0159310000000001
341.99999999999994,-0.013935
342.2,-0.0117850000000001
342.3999999999999,-0.0116960000000001
342.6,-0.011476
342.8,-0.011438
342.99999999999994,-0.012615
343.2,-0.0142569999999999
343.3999999999999,-0.01418
343.6,-0.013776
343.8,-0.01607
343.99999999999994,-0.0185840000000001
344.2,-0.0212419999999999
344.3999999999999,-0.023314
344.6,-0.0259370000000001
344.8,-0.026925
344.99999999999994,-0.025778
345.2,-0.024
345.3999999999999,-0.0216739999999999
345.6,-0.0197800000000001
345.8,-0.0172700000000001
345.99999999999994,-0.014815
346.2,-0.0139869999999999
346.3999999999999,-0.014191
346.6,-0.014456
346.8,-0.014453
346.99999999999994,-0.01733
347.2,-0.018348
347.3999999999999,-0.0164520000000001
347.6,-0.014046
347.8,-0.0134389999999999
347.99999999999994,-0.0115849999999999
348.2,-0.0096439999999999
348.3999999999999,-0.009551
348.6,-0.0110719999999999
348.8,-0.0105129999999999
348.99999999999994,-0.0123999999999999
349.2,-0.014313
349.3999999999999,-0.014623
349.6,-0.012863
349.8,-0.011789
349.99999999999994,-0.0091130000000001
350.2,-0.0067669999999999
350.3999999999999,-0.007727
350.6,-0.011335
350.8,-0.0155739999999999
350.99999999999994,-0.0189399999999999
351.2,-0.0211829999999999
351.3999999999999,-0.021767
351.6,-0.0205459999999999
351.8,-0.0197690000000001
351.99999999999994,-0.0196720000000001
352.2,-0.0205859999999999
352.3999999999999,-0.0178089999999999
352.6,-0.017776
352.8,-0.0197709999999999
352.99999999999994,-0.023136
353.2,-0.023892
353.3999999999999,-0.027122
353.6,-0.026081
353.8,-0.0235050000000001
353.99999999999994,-0.021082
354.2,-0.0202839999999999
354.3999999999999,-0.018316
354.6,-0.0196400000000001
354.8,-0.0186539999999999
354.99999999999994,-0.0176420000000001
355.2,-0.0158409999999999
355.3999999999999,-0.0165189999999999
355.6,-0.015848
355.8,-0.0159800000000001
355.99999999999994,-0.014547
356.2,-0.0146980000000001
356.3999999999999,-0.0165189999999999
356.6,-0.0186170000000001
356.8,-0.0204790000000001
356.99999999999994,-0.0207669999999999
357.2,-0.020596
357.3999999999999,-0.0180580000000001
357.6,-0.0162269999999999
357.8,-0.0165379999999999
357.99999999999994,-0.015611
358.2,-0.014906
358.3999999999999,-0.0153769999999999
358.6,-0.015981
358.8,-0.0157979999999999
358.99999999999994,-0.0190049999999999
359.2,-0.022612
359.3999999999999,-0.025063
359.6,-0.0246269999999999
359.8,-0.0219390000000001
359.99999999999994,-0.0169840000000001
360.2,-0.014469
360.3999999999999,-0.0135359999999999
360.6,-0.0139519999999999
360.8,-0.0140649999999999
361.0,-0.017465
361.2,-0.01831
361.3999999999999,-0.0193039999999999
361.6,-0.0188779999999999
361.8,-0.0211259999999999
362.0,-0.0212529999999999
362.2,-0.0213499999999999
362.3999999999999,-0.019117
362.6,-0.0181390000000001
362.8,-0.0166239999999999
363.0,-0.0156279999999999
363.2,-0.0155069999999999
363.3999999999999,-0.0148159999999999
363.6,-0.014575
363.8,-0.0140660000000001
364.0,-0.015554
364.2,-0.0177
364.3999999999999,-0.020334
364.6,-0.0220800000000001
364.8,-0.0220200000000001
365.0,-0.0199679999999999
365.2,-0.0184299999999999
365.3999999999999,-0.017592
365.6,-0.0177450000000001
365.8,-0.0183740000000001
366.0,-0.017616
366.2,-0.014766
366.3999999999999,-0.013684
366.6,-0.012609
366.8,-0.011257
367.0,-0.011505
367.2,-0.013282
367.3999999999999,-0.013333
367.6,-0.0138899999999999
367.8,-0.014048
368.0,-0.013905
368.2,-0.0139629999999999
368.3999999999999,-0.0151400000000001
368.6,-0.014718
368.8,-0.0156439999999999
369.0,-0.017074
369.2,-0.0167619999999999
369.3999999999999,-0.0149989999999999
369.6,-0.014512
369.8,-0.014696
370.0,-0.014032
370.2,-0.0145570000000001
370.3999999999999,-0.016018
370.6,-0.0174609999999999
370.8,-0.018208
371.0,-0.020402
371.2,-0.0199199999999999
371.3999999999999,-0.0203790000000001
371.6,-0.02024
371.8,-0.020961
372.0,-0.0194370000000001
372.2,-0.0182949999999999
372.3999999999999,-0.0176560000000001
372.6,-0.017468
372.8,-0.0174510000000001
373.0,-0.0193229999999999
373.2,-0.0216640000000001
373.3999999999999,-0.0214480000000001
373.6,-0.022135
373.8,-0.022904
374.0,-0.0220390000000001
374.2,-0.020677
374.3999999999999,-0.0202759999999999
374.6,-0.0182250000000001
374.8,-0.0168650000000001
375.0,-0.0147859999999999
375.2,-0.013724
375.3999999999999,-0.012313
375.6,-0.0109080000000001
375.8,-0.0097929999999999
376.0,-0.0110970000000001
376.2,-0.0126239999999999
376.3999999999999,-0.015713
376.6,-0.020437
376.8,-0.022529
377.0,-0.023069
377.2,-0.023989
377.3999999999999,-0.0244619999999999
377.6,-0.022078
377.8,-0.020826
378.0,-0.021849
378.2,-0.0214849999999999
378.3999999999999,-0.0196100000000001
378.6,-0.021247
378.8,-0.0223729999999999
379.0,-0.0211479999999999
379.2,-0.021757
379.3999999999999,-0.0245889999999999
379.6,-0.0264919999999999
379.8,-0.030572
380.0,-0.033365
380.2,-0.0309859999999999
380.3999999999999,-0.0270399999999999
380.6,-0.0231019999999999
380.8,-0.020083
381.0,-0.020456
381.2,-0.0240759999999999
381.3999999999999,-0.0275419999999999
381.6,-0.030364
381.8,-0.0287319999999999
382.0,-0.024178
382.2,-0.022494
382.3999999999999,-0.0205820000000001
382.6,-0.020458
382.8,-0.021319
383.0,-0.023689
383.2,-0.025212
383.3999999999999,-0.0261690000000001
383.6,-0.024607
383.8,-0.0219519999999999
384.0,-0.0217070000000001
384.2,-0.0199
384.3999999999999,-0.017938
384.6,-0.0169749999999999
384.8,-0.0181980000000001
385.0,-0.017627
385.2,-0.0186300000000001
385.3999999999999,-0.020469
385.6,-0.0220979999999999
385.8,-0.019946
386.0,-0.019317
386.2,-0.0196769999999999
386.3999999999999,-0.0208810000000001
386.6,-0.0203839999999999
386.8,-0.0223079999999999
387.0,-0.024623
387.2,-0.0252320000000001
387.3999999999999,-0.0257290000000001
387.6,-0.0278119999999999
387.8,-0.031357
388.0,-0.0310570000000001
388.2,-0.0309140000000001
388.3999999999999,-0.028726
388.6,-0.0270939999999999
388.8,-0.0273590000000001
389.0,-0.030348
389.2,-0.032842
389.3999999999999,-0.036507
389.6,-0.0378979999999999
389.8,-0.0355739999999999
390.0,-0.0309479999999999
390.2,-0.0266859999999999
390.3999999999999,-0.024583
390.6,-0.0246459999999999
390.8,-0.025651
391.0,-0.027644
391.2,-0.0272479999999999
391.3999999999999,-0.0258640000000001
391.6,-0.0254119999999999
391.8,-0.026648
392.0,-0.027319
392.2,-0.030186
392.3999999999999,-0.0328859999999999
392.6,-0.0330019999999999
392.8,-0.0321169999999999
393.0,-0.030459
393.2,-0.028661
393.3999999999999,-0.02448
393.6,-0.0227650000000001
393.8,-0.021433
394.0,-0.022089
394.2,-0.022847
394.3999999999999,-0.0253000000000001
394.6,-0.024623
394.8,-0.0234050000000001
395.0,-0.0203330000000001
395.2,-0.0194720000000001
395.3999999999999,-0.0196149999999999
395.6,-0.0206669999999999
395.8,-0.022915
396.0,-0.027819
396.2,-0.030612
396.3999999999999,-0.0326570000000001
396.6,-0.0343759999999999
396.8,-0.033047
397.0,-0.031263
397.2,-0.030127
397.3999999999999,-0.0295480000000001
397.6,-0.029508
397.8,-0.030299
398.0,-0.02803
398.2,-0.025379
398.3999999999999,-0.023125
398.6,-0.0211989999999999
398.8,-0.0209970000000001
399.0,-0.0246980000000001
399.2,-0.0280470000000001
399.3999999999999,-0.029894
399.6,-0.032559
399.8,-0.034974
400.0,-0.0346250000000001
400.2,-0.0342949999999999
400.3999999999999,-0.032721
400.6,-0.031379
400.8,-0.0318990000000001
401.0,-0.031878
401.2,-0.031482
401.3999999999999,-0.0323949999999999
401.6,-0.0315450000000001
401.8,-0.0278199999999999
402.0,-0.0238150000000001
402.2,-0.021921
402.3999999999999,-0.023649
402.6,-0.0265490000000001
402.8,-0.0275279999999999
403.0,-0.0277279999999999
403.2,-0.0276940000000001
403.3999999999999,-0.028038
403.6,-0.0289669999999999
403.8,-0.03034
404.0,-0.034351
404.2,-0.0381979999999999
404.3999999999999,-0.036893
404.6,-0.0328680000000001
404.8,-0.030858
405.0,-0.0292959999999999
405.2,-0.0281599999999999
405.3999999999999,-0.0299100000000001
405.6,-0.0333510000000001
405.8,-0.0360739999999999
406.0,-0.038232
406.2,-0.039498
406.3999999999999,-0.040451
406.6,-0.039903
406.8,-0.038701
407.0,-0.0378020000000001
407.2,-0.035703
407.3999999999999,-0.0316309999999999
407.6,-0.030048
407.8,-0.029919
408.0,-0.030167
408.2,-0.0312149999999999
408.3999999999999,-0.034353
408.6,-0.0347269999999999
408.8,-0.034359
409.0,-0.0358640000000001
409.2,-0.036219
409.3999999999999,-0.0349559999999999
409.6,-0.0358260000000001
409.8,-0.036569
410.0,-0.035786
410.2,-0.0355670000000001
410.3999999999999,-0.036005
410.6,-0.034348
410.8,-0.0334970000000001
411.0,-0.029859
411.2,-0.026785
411.3999999999999,-0.024038
411.6,-0.02417
411.8,-0.0251050000000001
412.0,-0.028065
412.2,-0.0320789999999999
412.3999999999999,-0.0347330000000001
412.6,-0.0366729999999999
412.8,-0.0385569999999999
413.0,-0.038632
413.2,-0.0371589999999999
413.3999999999999,-0.036745
413.6,-0.0366619999999999
413.8,-0.0362850000000001
414.0,-0.0357849999999999
414.2,-0.0336480000000001
414.3999999999999,-0.0291840000000001
414.6,-0.026853
414.8,-0.0245839999999999
415.0,-0.0244569999999999
415.2,-0.02722
415.3999999999999,-0.0340549999999999
415.6,-0.0376279999999999
415.8,-0.039163
416.0,-0.039984
416.2,-0.0400260000000001
416.3999999999999,-0.0382029999999999
416.6,-0.0360960000000001
416.8,-0.0356830000000001
417.0,-0.037112
417.2,-0.0381850000000001
417.3999999999999,-0.0370509999999999
417.6,-0.0362439999999999
417.8,-0.0365250000000001
418.0,-0.036661
418.2,-0.0377260000000001
418.3999999999999,-0.039493
418.6,-0.040656
418.8,-0.0415480000000001
419.0,-0.038632
419.2,-0.034423
419.3999999999999,-0.034569
419.6,-0.0357340000000001
419.8,-0.035716
420.0,-0.0377610000000001
420.2,-0.0405950000000001
420.3999999999999,-0.0399869999999999
420.6,-0.0390989999999999
420.8,-0.0377260000000001
421.0,-0.0377050000000001
421.2,-0.036048
421.3999999999999,-0.0360690000000001
421.6,-0.0347779999999999
421.8,-0.031983
422.0,-0.0304280000000001
422.2,-0.031006
422.3999999999999,-0.030958
422.6,-0.0316450000000001
422.8,-0.0356670000000001
423.0,-0.036618
423.2,-0.0375339999999999
423.3999999999999,-0.0374210000000001
423.6,-0.036977
423.8,-0.0344360000000001
424.0,-0.0329209999999999
424.2,-0.0305839999999999
424.3999999999999,-0.027873
424.6,-0.0252430000000001
424.8,-0.024933
425.0,-0.0255069999999999
425.2,-0.026248
425.3999999999999,-0.0269179999999999
425.6,-0.0308589999999999
425.8,-0.0331270000000001
426.0,-0.0335069999999999
426.2,-0.033198
426.3999999999999,-0.034882
426.6,-0.0361310000000001
426.8,-0.0374480000000001
427.0,-0.0383310000000001
427.2,-0.03936
427.3999999999999,-0.038866
427.6,-0.037047
427.8,-0.034488
428.0,-0.0357689999999999
428.2,-0.035919
428.3999999999999,-0.036966
428.6,-0.0377009999999999
428.8,-0.040737
429.0,-0.039805
429.2,-0.0416739999999999
429.3999999999999,-0.043082
429.6,-0.0429269999999999
429.8,-0.0403409999999999
430.0,-0.037778
430.2,-0.034604
430.3999999999999,-0.0321869999999999
430.6,-0.032642
430.8,-0.0327779999999999
431.0,-0.0343539999999999
431.2,-0.0355739999999999
431.3999999999999,-0.0373529999999999
431.6,-0.037409
431.8,-0.0403649999999999
432.0,-0.042548
432.2,-0.045455
432.3999999999999,-0.0473620000000001
432.6,-0.049279
432.8,-0.049169
433.0,-0.0492240000000001
433.2,-0.048089
433.3999999999999,-0.0466379999999999
433.6,-0.04461
433.8,-0.0445200000000001
434.0,-0.0433730000000001
434.2,-0.0426790000000001
434.3999999999999,-0.0400910000000001
434.6,-0.03936
434.8,-0.0373540000000001
435.0,-0.037714
435.2,-0.036664
435.3999999999999,-0.0349330000000001
435.6,-0.0326429999999999
435.8,-0.03034
436.0,-0.0285280000000001
436.2,-0.0295640000000001
436.3999999999999,-0.0322550000000001
436.6,-0.0351449999999999
436.8,-0.0386299999999999
437.0,-0.0423630000000001
437.2,-0.0442
437.3999999999999,-0.045681
437.6,-0.044062
437.8,-0.0418439999999999
438.0,-0.038739
438.2,-0.0340739999999999
438.3999999999999,-0.029114
438.6,-0.0298199999999999
438.8,-0.032291
439.0,-0.0339739999999999
439.2,-0.0360599999999999
439.3999999999999,-0.0403120000000001
439.6,-0.039258
439.8,-0.0365010000000001
440.0,-0.0371490000000001
440.2,-0.0389129999999999
440.3999999999999,-0.037506
440.6,-0.038901
440.8,-0.040348
441.0,-0.038642
441.2,-0.035846
441.3999999999999,-0.03597
441.6,-0.0362420000000001
441.8,-0.035355
442.0,-0.0346550000000001
442.2,-0.0342420000000001
442.3999999999999,-0.033913
442.6,-0.0320880000000001
442.8,-0.033401
443.0,-0.0335130000000001
443.2,-0.0360070000000001
443.3999999999999,-0.0373499999999999
443.6,-0.0396320000000001
443.8,-0.0403770000000001
444.0,-0.041109
444.2,-0.0388250000000001
444.3999999999999,-0.03854
444.6,-0.039196
444.8,-0.0402629999999999
445.0,-0.0415670000000001
445.2,-0.0420500000000001
445.3999999999999,-0.0397130000000001
445.6,-0.0391909999999999
445.8,-0.0394560000000001
446.0,-0.0410060000000001
446.2,-0.0420990000000001
446.3999999999999,-0.043768
446.6,-0.042516
446.8,-0.0400800000000001
447.0,-0.03716
447.2,-0.038116
447.3999999999999,-0.040224
447.6,-0.0414480000000001
447.8,-0.041584
448.0,-0.042543
448.2,-0.0402379999999999
448.3999999999999,-0.0375039999999999
448.6,-0.0358530000000001
448.8,-0.035271
449.0,-0.0337579999999999
449.2,-0.0349890000000001
449.3999999999999,-0.0364710000000001
449.6,-0.037247
449.8,-0.0364299999999999
450.0,-0.0374700000000001
450.2,-0.0366330000000001
450.3999999999999,-0.0370140000000001
450.6,-0.0380439999999999
450.8,-0.0406189999999999
451.0,-0.041241
451.2,-0.0427280000000001
451.3999999999999,-0.04241
451.6,-0.0434780000000001
451.8,-0.044351
452.0,-0.044478
452.2,-0.0422359999999999
452.3999999999999,-0.041174
452.6,-0.0398670000000001
452.8,-0.038631
453.0,-0.0389509999999999
453.2,-0.042434
453.3999999999999,-0.0463379999999999
453.6,-0.04786
453.8,-0.0478910000000001
454.0,-0.047266
454.2,-0.045352
454.3999999999999,-0.0412289999999999
454.6,-0.039724
454.8,-0.040291
455.0,-0.0392570000000001
455.2,-0.041255
455.3999999999999,-0.0423519999999999
455.6,-0.0412270000000001
455.8,-0.0397450000000001
456.0,-0.0403839999999999
456.2,-0.039379
456.3999999999999,-0.041271
456.6,-0.0450680000000001
456.8,-0.0486699999999999
457.0,-0.050707
457.2,-0.0509030000000001
457.3999999999999,-0.0512799999999999
457.6,-0.050672
457.8,-0.047741
458.0,-0.045627
458.2,-0.0454320000000001
458.3999999999999,-0.044229
458.6,-0.0445379999999999
458.8,-0.0439579999999999
459.0,-0.043924
459.2,-0.0432319999999999
459.3999999999999,-0.042531
459.6,-0.037784
459.8,-0.036818
460.0,-0.036588
460.2,-0.039142
460.3999999999999,-0.0416929999999999
460.6,-0.0459480000000001
460.8,-0.0487630000000001
461.0,-0.0489380000000001
461.2,-0.047465
461.3999999999999,-0.0460230000000001
461.6,-0.046289
461.8,-0.047549
462.0,-0.047984
462.2,-0.0485390000000001
462.3999999999999,-0.048262
462.6,-0.0453620000000001
462.8,-0.0422550000000001
463.0,-0.043498
463.2,-0.043751
463.3999999999999,-0.0445040000000001
463.6,-0.0477320000000001
463.8,-0.050421
464.0,-0.0487539999999999
464.2,-0.046351
464.3999999999999,-0.0452859999999999
464.6,-0.0437929999999999
464.8,-0.040917
465.0,-0.04028
465.2,-0.0413719999999999
465.3999999999999,-0.042286
465.6,-0.0405740000000001
465.8,-0.038585
466.0,-0.039023
466.2,-0.038464
466.3999999999999,-0.0350300000000001
466.6,-0.033638
466.8,-0.03323
467.0,-0.034667
467.2,-0.0375
467.3999999999999,-0.0419309999999999
467.6,-0.045195
467.8,-0.0476910000000001
468.0,-0.0465619999999999
468.2,-0.0433639999999999
468.3999999999999,-0.041703
468.6,-0.042899
468.8,-0.0446090000000001
469.0,-0.046437
469.2,-0.0475780000000001
469.3999999999999,-0.0463310000000001
469.6,-0.044826
469.8,-0.0439439999999999
470.0,-0.041185
470.2,-0.0399439999999999
470.3999999999999,-0.041387
470.6,-0.0423360000000001
470.8,-0.0429749999999999
471.0,-0.044945
471.2,-0.045919
471.3999999999999,-0.0451110000000001
471.6,-0.0448669999999999
471.8,-0.0452019999999999
472.0,-0.047417
472.2,-0.049784
472.3999999999999,-0.0504740000000001
472.6,-0.0493369999999999
472.8,-0.048391
473.0,-0.0459210000000001
473.2,-0.0439979999999999
473.3999999999999,-0.0450159999999999
473.6,-0.0467589999999999
473.8,-0.0477260000000001
474.0,-0.047628
474.2,-0.046737
474.3999999999999,-0.0441180000000001
474.6,-0.0411589999999999
474.8,-0.040944
475.0,-0.0419230000000001
475.2,-0.0424280000000001
475.3999999999999,-0.0429749999999999
475.6,-0.04458
475.8,-0.0447809999999999
476.0,-0.0446539999999999
476.2,-0.0431639999999999
476.3999999999999,-0.0417309999999999
476.6,-0.0379039999999999
476.8,-0.0359469999999999
477.0,-0.0355069999999999
477.2,-0.0374620000000001
477.3999999999999,-0.0390699999999999
477.6,-0.0404360000000001
477.8,-0.0415910000000001
478.0,-0.0421899999999999
478.2,-0.043236
478.3999999999999,-0.0452369999999999
478.6,-0.0476320000000001
478.8,-0.0474229999999999
479.0,-0.0437009999999999
479.2,-0.0398070000000001
479.3999999999999,-0.0369570000000001
479.6,-0.036837
479.8,-0.0377480000000001
480.0,-0.039719
480.2,-0.039249
480.3999999999999,-0.0382310000000001
480.6,-0.037711
480.8,-0.0379310000000001
481.0,-0.0415290000000001
481.2,-0.0490410000000001
481.3999999999999,-0.0552179999999999
481.6,-0.057625
481.8,-0.059501
482.0,-0.057887
482.2,-0.054521
482.3999999999999,-0.051844
482.6,-0.0524
482.8,-0.0499990000000001
483.0,-0.049244
483.2,-0.048273
483.3999999999999,-0.047571
483.6,-0.0450159999999999
483.8,-0.0449840000000001
484.0,-0.043198
484.2,-0.0423580000000001
484.3999999999999,-0.0430829999999999
484.6,-0.0449749999999999
484.8,-0.045833
485.0,-0.0445139999999999
485.2,-0.0433650000000001
485.3999999999999,-0.041471
485.6,-0.04072
485.8,-0.0432810000000001
486.0,-0.048804
486.2,-0.052664
486.3999999999999,-0.054907
486.6,-0.05474
486.8,-0.0513749999999999
487.0,-0.0482660000000001
487.2,-0.0460089999999999
487.3999999999999,-0.0459770000000001
487.6,-0.0469809999999999
487.8,-0.0480150000000001
488.0,-0.047428
488.2,-0.0461260000000001
488.3999999999999,-0.042213
488.6,-0.042075
488.8,-0.043044
489.0,-0.046885
489.2,-0.050329
489.3999999999999,-0.053879
489.6,-0.053268
489.8,-0.052551
490.0,-0.0500549999999999
490.2,-0.048656
490.3999999999999,-0.050248
490.6,-0.0524630000000001
490.8,-0.053058
491.0,-0.053001
491.2,-0.052737
491.3999999999999,-0.052632
491.6,-0.0528330000000001
491.8,-0.05258
492.0,-0.0529790000000001
492.2,-0.054278
492.3999999999999,-0.0525710000000001
492.6,-0.0495670000000001
492.8,-0.0492430000000001
493.0,-0.0510779999999999
493.2,-0.0535989999999999
493.3999999999999,-0.055644
493.6,-0.057512
493.8,-0.0566520000000001
494.0,-0.054972
494.2,-0.0503880000000001
494.3999999999999,-0.047779
494.6,-0.044756
494.8,-0.0436910000000001
495.0,-0.0419579999999999
495.2,-0.0420850000000001
495.3999999999999,-0.0448239999999999
495.6,-0.048273
495.8,-0.050003
496.0,-0.050559
496.2,-0.0518020000000001
496.3999999999999,-0.0510030000000001
496.6,-0.04977
496.8,-0.048267
497.0,-0.049039
497.2,-0.050354
497.3999999999999,-0.0515480000000001
497.6,-0.0526029999999999
497.8,-0.0549589999999999
498.0,-0.0581899999999999
498.2,-0.059816
498.3999999999999,-0.060645
498.6,-0.0613179999999999
498.8,-0.0588710000000001
499.0,-0.0554700000000001
499.2,-0.0525230000000001
499.3999999999999,-0.0481519999999999
499.6,-0.0449060000000001
499.8,-0.046602
500.0,-0.0473399999999999
500.2,-0.0467889999999999
500.3999999999999,-0.046963
500.6,-0.0485280000000001
500.8,-0.0493350000000001
501.0,-0.0490239999999999
501.2,-0.049673
501.3999999999999,-0.049136
501.6,-0.0483580000000001
501.8,-0.0454970000000001
502.0,-0.0435940000000001
502.2,-0.0417370000000001
502.3999999999999,-0.0413749999999999
502.6,-0.041058
502.8,-0.0435130000000001
503.0,-0.0458940000000001
503.2,-0.0494700000000001
503.3999999999999,-0.054461
503.6,-0.058027
503.8,-0.0573970000000001
504.0,-0.0557419999999999
504.2,-0.053322
504.3999999999999,-0.051814
504.6,-0.049093
504.8,-0.049949
505.0,-0.0516290000000001
505.2,-0.052729
505.3999999999999,-0.052075
505.6,-0.052129
505.8,-0.051744
506.0,-0.0510760000000001
506.2,-0.0497750000000001
506.3999999999999,-0.048041
506.6,-0.0478979999999999
506.8,-0.0467280000000001
507.0,-0.045916
507.2,-0.045206
507.3999999999999,-0.0455959999999999
507.6,-0.0457819999999999
507.8,-0.0478929999999999
508.0,-0.049719
508.2,-0.0503679999999999
508.3999999999999,-0.050397
508.6,-0.04979
508.8,-0.047582
509.0,-0.0464820000000001
509.2,-0.0474860000000001
509.3999999999999,-0.048621
509.6,-0.0494810000000001
509.8,-0.050553
510.0,-0.052162
510.2,-0.0549539999999999
510.3999999999999,-0.056486
510.6,-0.05722
510.8,-0.057835
511.0,-0.0585299999999999
511.2,-0.0596799999999999
511.3999999999999,-0.0616309999999999
511.6,-0.0624850000000001
511.8,-0.060451
512.0,-0.0575909999999999
512.2,-0.053037
512.3999999999999,-0.049522
512.5999999999999,-0.048108
512.8,-0.0488920000000001
513.0,-0.0507060000000001
513.2,-0.052167
513.3999999999999,-0.053854
513.5999999999999,-0.054607
513.8,-0.056229
514.0,-0.055695
514.2,-0.0565090000000001
514.3999999999999,-0.055809
514.5999999999999,-0.05804
514.8,-0.059393
515.0,-0.0628520000000001
515.2,-0.062049
515.3999999999999,-0.0601869999999999
515.5999999999999,-0.05634
515.8,-0.054435
516.0,-0.052192
516.2,-0.0537469999999999
516.3999999999999,-0.0564249999999999
516.5999999999999,-0.057946
516.8,-0.057779
517.0,-0.0561709999999999
517.2,-0.0530410000000001
517.3999999999999,-0.0515069999999999
517.5999999999999,-0.05119
517.8,-0.053037
518.0,-0.0566040000000001
518.2,-0.060742
518.3999999999999,-0.0621530000000001
518.5999999999999,-0.06413
518.8,-0.0654350000000001
519.0,-0.0658799999999999
519.2,-0.065606
519.3999999999999,-0.0670950000000001
519.5999999999999,-0.068834
519.8,-0.0686489999999999
520.0,-0.065495
520.2,-0.064507
520.3999999999999,-0.0638149999999999
520.5999999999999,-0.0609109999999999
520.8,-0.060867
521.0,-0.0620960000000001
521.2,-0.0606250000000001
521.3999999999999,-0.058259
521.5999999999999,-0.058705
521.8,-0.0581290000000001
522.0,-0.0579290000000001
522.2,-0.0603470000000001
522.3999999999999,-0.0600990000000001
522.5999999999999,-0.0596719999999999
522.8,-0.058316
523.0,-0.0595369999999999
523.2,-0.059787
523.3999999999999,-0.061409
523.5999999999999,-0.0620089999999999
523.8,-0.061971
524.0,-0.0609939999999999
524.2,-0.057927
524.3999999999999,-0.056337
524.5999999999999,-0.0551650000000001
524.8,-0.0560469999999999
525.0,-0.055455
525.2,-0.055722
525.3999999999999,-0.054656
525.5999999999999,-0.054076
525.8,-0.0542409999999999
526.0,-0.0548779999999999
526.2,-0.055212
526.3999999999999,-0.057587
526.5999999999999,-0.0588900000000001
526.8,-0.0576659999999999
527.0,-0.0577039999999999
527.2,-0.058983
527.3999999999999,-0.0597739999999999
527.5999999999999,-0.0595050000000001
527.8,-0.0604090000000001
528.0,-0.061188
528.2,-0.060283
528.3999999999999,-0.0585539999999999
528.5999999999999,-0.057771
528.8,-0.0560100000000001
529.0,-0.05403
529.2,-0.0545299999999999
529.3999999999999,-0.055574
529.5999999999999,-0.056786
529.8,-0.058038
530.0,-0.0586660000000001
530.2,-0.0572840000000001
530.3999999999999,-0.0558450000000001
530.5999999999999,-0.0518819999999999
530.8,-0.0500519999999999
531.0,-0.047223
531.2,-0.046308
531.3999999999999,-0.0457
531.5999999999999,-0.0496449999999999
531.8,-0.050667
532.0,-0.0534609999999999
532.2,-0.0558100000000001
532.3999999999999,-0.0589090000000001
532.5999999999999,-0.0604759999999999
532.8,-0.062345
533.0,-0.061323
533.2,-0.059206
533.3999999999999,-0.055752
533.5999999999999,-0.0501869999999999
533.8,-0.048731
534.0,-0.0516
534.2,-0.056907
534.3999999999999,-0.062996
534.5999999999999,-0.068268
534.8,-0.069725
535.0,-0.069336
535.2,-0.067701
535.3999999999999,-0.064794
535.5999999999999,-0.0648969999999999
535.8,-0.065306
536.0,-0.0652369999999999
536.2,-0.0646440000000001
536.3999999999999,-0.0630539999999999
536.5999999999999,-0.058613
536.8,-0.055571
537.0,-0.05326
537.2,-0.0534540000000001
537.3999999999999,-0.0555780000000001
537.5999999999999,-0.0601290000000001
537.8,-0.062535
538.0,-0.0633160000000001
538.2,-0.060348
538.3999999999999,-0.0587889999999999
538.5999999999999,-0.059493
538.8,-0.0601990000000001
539.0,-0.0611909999999999
539.2,-0.062537
539.3999999999999,-0.063584
539.5999999999999,-0.062812
539.8,-0.063395
540.0,-0.0648539999999999
540.2,-0.067037
540.3999999999999,-0.0689760000000001
540.5999999999999,-0.0684550000000001
540.8,-0.0662690000000001
541.0,-0.0639910000000001
541.2,-0.0624740000000001
541.3999999999999,-0.0618240000000001
541.5999999999999,-0.062842
541.8,-0.063245
542.0,-0.06373
542.2,-0.064284
542.3999999999999,-0.061325
542.5999999999999,-0.0601640000000001
542.8,-0.061045
543.0,-0.0618959999999999
543.2,-0.05976
543.3999999999999,-0.0584649999999999
543.5999999999999,-0.0562150000000001
543.8,-0.0538290000000001
544.0,-0.0520979999999999
544.2,-0.053455
544.3999999999999,-0.0561979999999999
544.5999999999999,-0.05888
544.8,-0.060826
545.0,-0.06054
545.2,-0.059666
545.3999999999999,-0.0592760000000001
545.5999999999999,-0.0581450000000001
545.8,-0.0559199999999999
546.0,-0.054605
546.2,-0.0552639999999999
546.3999999999999,-0.0557799999999999
546.5999999999999,-0.0567159999999999
546.8,-0.0585379999999999
547.0,-0.0617210000000001
547.2,-0.0618750000000001
547.3999999999999,-0.0612810000000001
547.5999999999999,-0.0595780000000001
547.8,-0.0585379999999999
548.0,-0.0573209999999999
548.2,-0.0583800000000001
548.3999999999999,-0.0611810000000001
548.5999999999999,-0.0640279999999999
548.8,-0.0643200000000001
549.0,-0.062756
549.2,-0.061506
549.3999999999999,-0.0574940000000001
549.5999999999999,-0.0528459999999999
549.8,-0.050569
550.0,-0.05126
550.2,-0.0516449999999999
550.3999999999999,-0.0544420000000001
550.5999999999999,-0.0583150000000001
550.8,-0.063223
551.0,-0.0670360000000001
551.2,-0.068184
551.3999999999999,-0.068227
551.5999999999999,-0.0683150000000001
551.8,-0.0687790000000001
552.0,-0.0659739999999999
552.2,-0.0659640000000001
552.3999999999999,-0.0655639999999999
552.5999999999999,-0.0662469999999999
552.8,-0.0644139999999999
553.0,-0.0672840000000001
553.2,-0.0675019999999999
553.3999999999999,-0.0690710000000001
553.5999999999999,-0.0685599999999999
553.8,-0.069692
554.0,-0.0680420000000001
554.2,-0.0686109999999999
554.3999999999999,-0.067549
554.5999999999999,-0.0667040000000001
554.8,-0.06386
555.0,-0.06206
555.2,-0.059477
555.3999999999999,-0.055199
555.5999999999999,-0.0516080000000001
555.8,-0.051959
556.0,-0.05295
556.2,-0.055331
556.3999999999999,-0.058982
556.5999999999999,-0.062616
556.8,-0.0635000000000001
557.0,-0.065631
557.2,-0.06735
557.3999999999999,-0.067223
557.5999999999999,-0.0660579999999999
557.8,-0.0638210000000001
558.0,-0.06067
558.2,-0.057924
558.3999999999999,-0.0576689999999999
558.5999999999999,-0.0568509999999999
558.8,-0.0600739999999999
559.0,-0.0632509999999999
559.2,-0.0657179999999999
559.3999999999999,-0.065582
559.5999999999999,-0.068251
559.8,-0.0687999999999999
560.0,-0.067962
560.2,-0.0644230000000001
560.3999999999999,-0.0631490000000001
560.5999999999999,-0.0601739999999999
560.8,-0.057201
561.0,-0.0552270000000001
561.2,-0.0568570000000001
561.3999999999999,-0.062343
561.5999999999999,-0.067325
561.8,-0.071361
562.0,-0.07474
562.2,-0.0755259999999999
562.3999999999999,-0.072629
562.5999999999999,-0.072062
562.8,-0.071522
563.0,-0.070405
563.2,-0.0713179999999999
563.3999999999999,-0.071498
563.5999999999999,-0.0702709999999999
563.8,-0.0685770000000001
564.0,-0.067055
564.2,-0.0651749999999999
564.3999999999999,-0.064977
564.5999999999999,-0.0664530000000001
564.8,-0.067361
565.0,-0.0681249999999999
565.2,-0.0669060000000001
565.3999999999999,-0.06657
565.5999999999999,-0.0650939999999999
565.8,-0.064948
566.0,-0.064313
566.2,-0.0651460000000001
566.3999999999999,-0.0647109999999999
566.5999999999999,-0.064362
566.8,-0.0633939999999999
567.0,-0.0635890000000001
567.2,-0.0643610000000001
567.3999999999999,-0.065083
567.5999999999999,-0.0650680000000001
567.8,-0.064794
568.0,-0.0661230000000001
568.2,-0.065828
568.3999999999999,-0.0633099999999999
568.5999999999999,-0.0605109999999999
568.8,-0.0596780000000001
569.0,-0.060087
569.2,-0.0607330000000001
569.3999999999999,-0.0625299999999999
569.5999999999999,-0.0640009999999999
569.8,-0.063442
570.0,-0.059309
570.2,-0.057879
570.3999999999999,-0.057671
570.5999999999999,-0.058329
570.8,-0.0600039999999999
571.0,-0.063309
571.2,-0.0627250000000001
571.3999999999999,-0.060975
571.5999999999999,-0.058885
571.8,-0.0581659999999999
572.0,-0.0559439999999999
572.2,-0.0569380000000001
572.3999999999999,-0.0581329999999999
572.5999999999999,-0.059684
572.8,-0.0593700000000001
573.0,-0.0591220000000001
573.2,-0.05692
573.3999999999999,-0.057773
573.5999999999999,-0.059282
573.8,-0.0603709999999999
574.0,-0.0627600000000001
574.1999999999998,-0.067474
574.3999999999999,-0.0677229999999999
574.5999999999999,-0.067727
574.8,-0.070524
575.0,-0.0719480000000001
575.1999999999998,-0.0713319999999999
575.3999999999999,-0.071536
575.5999999999999,-0.0728649999999999
575.8,-0.071347
576.0,-0.069142
576.1999999999998,-0.0667219999999999
576.3999999999999,-0.0652209999999999
576.5999999999999,-0.0631870000000001
576.8,-0.0639149999999999
577.0,-0.065865
577.1999999999998,-0.0678430000000001
577.3999999999999,-0.0699830000000001
577.5999999999999,-0.070634
577.8,-0.0700320000000001
578.0,-0.069835
578.1999999999998,-0.0690980000000001
578.3999999999999,-0.0664519999999999
578.5999999999999,-0.0641579999999999
578.8,-0.061746
579.0,-0.0614909999999999
579.1999999999998,-0.062251
579.3999999999999,-0.0646790000000001
579.5999999999999,-0.0664390000000001
579.8,-0.0689570000000001
580.0,-0.067868
580.1999999999998,-0.0660750000000001
580.3999999999999,-0.06406
580.5999999999999,-0.064335
580.8,-0.062926
581.0,-0.063185
581.1999999999998,-0.0640450000000001
581.3999999999999,-0.0650509999999999
581.5999999999999,-0.066141
581.8,-0.0686040000000001
582.0,-0.0672870000000001
582.1999999999998,-0.06597
582.3999999999999,-0.0656890000000001
582.5999999999999,-0.0658990000000001
582.8,-0.065633
583.0,-0.0685880000000001
583.1999999999998,-0.0717719999999999
583.3999999999999,-0.0730090000000001
583.5999999999999,-0.0708889999999999
583.8,-0.0696559999999999
584.0,-0.066991
584.1999999999998,-0.0637
584.3999999999999,-0.0629360000000001
584.5999999999999,-0.062859
584.8,-0.062731
585.0,-0.065048
585.1999999999998,-0.068208
585.3999999999999,-0.0702819999999999
585.5999999999999,-0.071687
585.8,-0.071369
586.0,-0.070902
586.1999999999998,-0.0715099999999999
586.3999999999999,-0.0722119999999999
586.5999999999999,-0.0720990000000001
586.8,-0.0724500000000001
587.0,-0.0730010000000001
587.1999999999998,-0.0717540000000001
587.3999999999999,-0.069987
587.5999999999999,-0.069744
587.8,-0.069557
588.0,-0.068886
588.1999999999998,-0.0702290000000001
588.3999999999999,-0.0696240000000001
588.5999999999999,-0.069981
588.8,-0.0705580000000001
589.0,-0.0708189999999999
589.1999999999998,-0.068691
589.3999999999999,-0.0689859999999999
589.5999999999999,-0.0681249999999999
589.8,-0.0683519999999999
590.0,-0.0693220000000001
590.1999999999998,-0.0733049999999999
590.3999999999999,-0.074643
590.5999999999999,-0.077242
590.8,-0.078046
591.0,-0.076518
591.1999999999998,-0.071962
591.3999999999999,-0.070667
591.5999999999999,-0.0688600000000001
591.8,-0.0665070000000001
592.0,-0.0657149999999999
592.1999999999998,-0.0650520000000001
592.3999999999999,-0.062643
592.5999999999999,-0.0615590000000001
592.8,-0.063058
593.0,-0.064014
593.1999999999998,-0.065083
593.3999999999999,-0.0667550000000001
593.5999999999999,-0.0667040000000001
593.8,-0.066092
594.0,-0.065585
594.1999999999998,-0.066176
594.3999999999999,-0.066775
594.5999999999999,-0.0679800000000001
594.8,-0.069779
595.0,-0.07233
595.1999999999998,-0.075204
595.3999999999999,-0.07746
595.5999999999999,-0.0791999999999999
595.8,-0.077954
596.0,-0.076243
596.1999999999998,-0.0725850000000001
596.3999999999999,-0.0705
596.5999999999999,-0.0696449999999999
596.8,-0.071217
597.0,-0.072556
597.1999999999998,-0.0744660000000001
597.3999999999999,-0.0741830000000001
597.5999999999999,-0.073034
597.8,-0.0703089999999999
598.0,-0.0662020000000001
598.1999999999998,-0.063347
598.3999999999999,-0.063164
598.5999999999999,-0.0639050000000001
598.8,-0.06468
599.0,-0.068329
599.1999999999998,-0.0718160000000001
599.3999999999999,-0.074681
