Time (s),Shift (nm)
0.0,0.0
0.1999999999999886,0.00018
0.4000000000000341,-0.001
0.6000000000000227,0.0003529999999999
0.8000000000000114,0.0015189999999999
1.0,0.0035489999999999
1.1999999999999886,0.005317
1.400000000000034,0.006782
1.6000000000000227,0.0074909999999999
1.8000000000000114,0.0079599999999999
2.0,0.0065179999999999
2.1999999999999886,0.0055839999999999
2.400000000000034,0.0056189999999999
2.6000000000000227,0.005332
2.800000000000012,0.0056269999999999
3.0,0.0051749999999999
3.1999999999999886,0.0046919999999999
3.400000000000034,0.0048739999999999
3.6000000000000227,0.004487
3.8000000000000114,0.003342
4.0,0.003166
4.199999999999989,0.002541
4.400000000000034,0.001684
4.600000000000023,0.0021049999999999
4.800000000000011,0.0022479999999999
5.0,0.004554
5.199999999999989,0.0064799999999999
5.400000000000034,0.007666
5.600000000000023,0.0066419999999999
5.800000000000011,0.0066669999999999
6.0,0.006197
6.199999999999989,0.006643
6.400000000000034,0.0080199999999999
6.600000000000023,0.0097519999999999
6.800000000000011,0.0104679999999999
7.0,0.010203
7.199999999999989,0.0089889999999999
7.400000000000034,0.0067679999999999
7.600000000000023,0.005749
7.800000000000011,0.006087
8.0,0.0076899999999999
8.199999999999989,0.0081439999999999
8.400000000000034,0.008587
8.600000000000023,0.009502
8.800000000000011,0.0095569999999999
9.0,0.007778
9.199999999999989,0.0065999999999999
9.400000000000034,0.0061789999999999
9.600000000000025,0.003958
9.800000000000011,0.0017439999999999
10.0,0.000558
10.199999999999989,0.0018989999999999
10.400000000000034,0.0022209999999999
10.600000000000025,0.004095
10.800000000000011,0.00605
11.0,0.0079529999999999
11.199999999999989,0.0078829999999999
11.400000000000034,0.0099849999999999
11.600000000000025,0.010712
11.800000000000011,0.009502
12.0,0.007201
12.199999999999989,0.0061049999999999
12.400000000000034,0.0024989999999999
12.600000000000025,0.000958
12.800000000000011,0.0006629999999999
13.0,0.002377
13.199999999999989,0.0035049999999999
13.400000000000034,0.006006
13.600000000000025,0.0058409999999999
13.800000000000011,0.0057249999999999
14.0,0.0046669999999999
14.199999999999989,0.0054639999999999
14.400000000000034,0.0065939999999999
14.600000000000025,0.0074489999999999
14.800000000000011,0.008716
15.0,0.010647
15.199999999999989,0.0116379999999999
15.400000000000034,0.0106009999999999
15.600000000000025,0.009915
15.800000000000011,0.009562
16.0,0.0079449999999999
16.19999999999999,0.0072399999999999
16.400000000000034,0.0085459999999999
16.600000000000023,0.0097709999999999
16.80000000000001,0.0082559999999999
17.0,0.00818
17.19999999999999,0.0070749999999999
17.400000000000034,0.0060749999999999
17.600000000000023,0.0049159999999999
17.80000000000001,0.0070429999999999
18.0,0.008541
18.19999999999999,0.0086499999999999
18.400000000000038,0.0075459999999999
18.600000000000023,0.007344
18.80000000000001,0.0057249999999999
19.0,0.0043139999999999
19.19999999999999,0.0029429999999999
19.400000000000038,0.0028859999999999
19.600000000000023,0.0025689999999999
19.80000000000001,0.0038989999999999
20.0,0.0036379999999999
20.19999999999999,0.0040439999999999
20.400000000000038,0.0030519999999999
20.600000000000023,0.0034029999999999
20.80000000000001,0.004143
21.0,0.006834
21.19999999999999,0.0093969999999999
21.400000000000038,0.0109429999999999
21.600000000000023,0.0108619999999999
21.80000000000001,0.009135
22.0,0.0084239999999999
22.19999999999999,0.0074349999999999
22.400000000000038,0.0081259999999999
22.600000000000023,0.009521
22.80000000000001,0.01049
23.0,0.009639
23.19999999999999,0.008415
23.400000000000038,0.005595
23.600000000000023,0.0040959999999999
23.80000000000001,0.003504
24.0,0.0041039999999999
24.19999999999999,0.005815
24.400000000000038,0.0088289999999999
24.600000000000023,0.0101999999999999
24.80000000000001,0.010288
25.0,0.0082359999999999
25.19999999999999,0.0070239999999999
25.400000000000038,0.0058679999999999
25.600000000000023,0.0056979999999999
25.80000000000001,0.006475
26.0,0.0071039999999999
26.19999999999999,0.0069279999999999
26.400000000000038,0.0065179999999999
26.600000000000023,0.0064929999999999
26.80000000000001,0.0058759999999999
27.0,0.0075359999999999
27.19999999999999,0.009884
27.400000000000038,0.0121229999999999
27.600000000000023,0.011965
27.80000000000001,0.0118159999999999
28.0,0.010427
28.19999999999999,0.007328
28.400000000000038,0.005481
28.600000000000023,0.006191
28.80000000000001,0.0080939999999999
29.0,0.00927
29.19999999999999,0.0101899999999999
29.400000000000038,0.009695
29.600000000000023,0.0076859999999999
29.80000000000001,0.00361
30.0,0.0001169999999999
30.19999999999999,-0.0017139999999999
30.400000000000038,-0.0010439999999999
30.600000000000023,0.0010519999999999
30.80000000000001,0.003321
31.0,0.0053369999999999
31.19999999999999,0.0073889999999999
31.400000000000038,0.008176
31.600000000000023,0.0064549999999999
31.80000000000001,0.0051979999999999
32.0,0.0037739999999999
32.19999999999999,0.0015239999999999
32.400000000000034,-0.0006269999999999
32.60000000000002,-0.0007059999999999
32.80000000000001,0.0003049999999999
33.0,0.00161
33.19999999999999,0.003282
33.400000000000034,0.0050209999999999
33.60000000000002,0.0071899999999999
33.80000000000001,0.0083849999999999
34.0,0.009114
34.19999999999999,0.010759
34.400000000000034,0.0116769999999999
34.60000000000002,0.010253
34.80000000000001,0.0084009999999999
35.0,0.0072329999999999
35.19999999999999,0.005404
35.400000000000034,0.0047189999999999
35.60000000000002,0.0039909999999999
35.80000000000001,0.0042719999999999
36.0,0.006581
36.19999999999999,0.0076649999999999
36.400000000000034,0.0067389999999999
36.60000000000002,0.007151
36.80000000000001,0.0072769999999999
37.0,0.003979
37.19999999999999,0.002365
37.400000000000034,0.0022659999999999
37.60000000000002,0.0019939999999999
37.80000000000001,0.0022709999999999
38.0,0.0029069999999999
38.19999999999999,0.0035629999999999
38.400000000000034,0.003624
38.60000000000002,0.0024779999999999
38.80000000000001,0.0015839999999999
39.0,0.0026559999999999
39.19999999999999,0.0039779999999999
39.400000000000034,0.0049429999999999
39.60000000000002,0.0067309999999999
39.80000000000001,0.008473
40.0,0.009786
40.19999999999999,0.009359
40.400000000000034,0.00933
40.60000000000002,0.0115259999999999
40.80000000000001,0.012268
41.0,0.009788
41.19999999999999,0.009328
41.400000000000034,0.0088809999999999
41.60000000000002,0.0079619999999999
41.80000000000001,0.008079
42.0,0.0104449999999999
42.19999999999999,0.0123329999999999
42.400000000000034,0.0127909999999999
42.60000000000002,0.0115989999999999
42.80000000000001,0.0107229999999999
43.0,0.0093699999999999
43.19999999999999,0.0063759999999999
43.400000000000034,0.0042929999999999
43.60000000000002,0.0046729999999999
43.80000000000001,0.0046629999999999
44.0,0.0048449999999999
44.19999999999999,0.004956
44.400000000000034,0.006209
44.60000000000002,0.0067599999999999
44.80000000000001,0.0071339999999999
45.0,0.009189
45.19999999999999,0.010888
45.400000000000034,0.0120569999999999
45.60000000000002,0.011039
45.80000000000001,0.0101479999999999
46.0,0.0067169999999999
46.19999999999999,0.006222
46.400000000000034,0.006541
46.60000000000002,0.008226
46.80000000000001,0.0087359999999999
47.0,0.0100609999999999
47.19999999999999,0.0097659999999999
47.400000000000034,0.0072119999999999
47.60000000000002,0.0053869999999999
47.80000000000001,0.0058239999999999
48.0,0.007344
48.19999999999999,0.0077669999999999
48.400000000000034,0.008828
48.60000000000002,0.010058
48.80000000000001,0.010575
49.0,0.0096979999999999
49.19999999999999,0.0077809999999999
49.400000000000034,0.00672
49.60000000000002,0.006087
49.80000000000001,0.005311
50.0,0.005056
50.19999999999999,0.005828
50.400000000000034,0.0064509999999999
50.60000000000002,0.006392
50.80000000000001,0.0065549999999999
51.0,0.0067149999999999
51.19999999999999,0.008077
51.400000000000034,0.0087949999999999
51.60000000000002,0.0064029999999999
51.80000000000001,0.0036539999999999
52.0,0.001464
52.19999999999999,-0.001925
52.400000000000034,-0.003806
52.60000000000002,-0.003136
52.80000000000001,-0.001441
53.0,-0.0001289999999999
53.19999999999999,0.0026859999999999
53.400000000000034,0.0048239999999999
53.60000000000002,0.0051899999999999
53.80000000000001,0.0047619999999999
54.0,0.0051479999999999
54.19999999999999,0.0065989999999999
54.400000000000034,0.0068659999999999
54.60000000000002,0.0068809999999999
54.80000000000001,0.0077089999999999
55.0,0.008415
55.19999999999999,0.0074409999999999
55.400000000000034,0.005956
55.60000000000002,0.005523
55.80000000000001,0.004033
56.0,0.0038239999999999
56.19999999999999,0.0042209999999999
56.400000000000034,0.0042709999999999
56.60000000000002,0.0036669999999999
56.80000000000001,0.0032479999999999
57.0,0.0034199999999999
57.19999999999999,0.0023559999999999
57.400000000000034,0.0028529999999999
57.60000000000002,0.0036629999999999
57.80000000000001,0.0036319999999999
58.0,0.0009899999999999
58.19999999999999,-0.000456
58.400000000000034,-0.001259
58.60000000000002,-0.002213
58.80000000000001,-0.001885
59.0,-0.000672
59.19999999999999,0.000431
59.400000000000034,0.0007099999999999
59.60000000000002,0.0032079999999999
59.80000000000001,0.006234
60.0,0.0080469999999999
60.19999999999999,0.0102599999999999
60.400000000000034,0.011336
60.60000000000002,0.0100959999999999
60.80000000000001,0.0076849999999999
61.0,0.007446
61.19999999999999,0.004969
61.400000000000034,0.004062
61.60000000000002,0.0044819999999999
61.80000000000001,0.0051839999999999
62.00000000000006,0.0061609999999999
62.19999999999999,0.0084469999999999
62.400000000000034,0.009104
62.599999999999966,0.010141
62.80000000000001,0.010004
63.00000000000006,0.0097389999999999
63.19999999999999,0.007917
63.400000000000034,0.0080279999999999
63.599999999999966,0.0051319999999999
63.80000000000001,0.004155
64.00000000000006,0.0032039999999999
64.19999999999999,0.003834
64.40000000000003,0.0037729999999999
64.59999999999997,0.0060769999999999
64.80000000000001,0.007643
65.00000000000006,0.008369
65.19999999999999,0.009512
65.40000000000003,0.0110549999999999
65.59999999999997,0.0117349999999999
65.80000000000001,0.012268
66.00000000000006,0.011587
66.19999999999999,0.010662
66.40000000000003,0.0095939999999999
66.59999999999997,0.009703
66.80000000000001,0.008971
67.00000000000006,0.006846
67.19999999999999,0.004064
67.40000000000003,0.0021599999999999
67.59999999999997,-0.000805
67.80000000000001,-0.0029879999999999
68.00000000000006,-0.00219
68.19999999999999,6.20000000000065e-05
68.40000000000003,0.0006439999999999
68.59999999999997,0.0029009999999999
68.80000000000001,0.00628
69.00000000000006,0.0087849999999999
69.19999999999999,0.0097559999999999
69.40000000000003,0.0118079999999999
69.59999999999997,0.011867
69.80000000000001,0.01155
70.00000000000006,0.0087649999999999
70.19999999999999,0.0067579999999999
70.40000000000003,0.0038489999999999
70.59999999999997,0.005303
70.80000000000001,0.005765
71.00000000000006,0.008041
71.19999999999999,0.0098779999999999
71.40000000000003,0.0123449999999999
71.59999999999997,0.011133
71.80000000000001,0.0096629999999999
72.00000000000006,0.007174
72.19999999999999,0.0061549999999999
72.40000000000003,0.0052699999999999
72.59999999999997,0.0051029999999999
72.80000000000001,0.0033119999999999
73.00000000000006,0.0028889999999999
73.19999999999999,0.0016309999999999
73.40000000000003,0.0006659999999999
73.59999999999997,0.0001919999999999
73.80000000000001,0.0020609999999999
74.00000000000006,0.0047729999999999
74.19999999999999,0.0046149999999999
74.40000000000003,0.0054589999999999
74.59999999999997,0.0064739999999999
74.80000000000001,0.0067869999999999
75.00000000000006,0.0052169999999999
75.19999999999999,0.006002
75.40000000000003,0.005753
75.59999999999997,0.0043059999999999
75.80000000000001,0.0009399999999999
76.00000000000006,-0.0008159999999999
76.19999999999999,-0.0029689999999999
76.40000000000003,-0.004865
76.59999999999997,-0.005564
76.80000000000001,-0.003433
77.00000000000006,-0.001101
77.19999999999999,0.0014979999999999
77.40000000000003,0.004193
77.59999999999997,0.005481
77.80000000000001,0.0058719999999999
78.00000000000006,0.0057619999999999
78.19999999999999,0.0051859999999999
78.40000000000003,0.003915
78.59999999999997,0.002703
78.80000000000001,0.001473
79.00000000000006,-0.0004879999999999
79.19999999999999,-0.0001099999999999
79.40000000000003,0.00095
79.59999999999997,0.0017559999999999
79.80000000000001,0.0020029999999999
80.00000000000006,0.0032739999999999
80.19999999999999,0.004033
80.40000000000003,0.0038389999999999
80.59999999999997,0.004039
80.80000000000001,0.005456
81.00000000000006,0.0059319999999999
81.19999999999999,0.006728
81.40000000000003,0.006471
81.59999999999997,0.0053519999999999
81.80000000000001,0.004749
82.00000000000006,0.0056649999999999
82.19999999999999,0.0049619999999999
82.40000000000003,0.006647
82.59999999999997,0.008388
82.80000000000001,0.0119019999999999
83.00000000000006,0.012322
83.19999999999999,0.012693
83.40000000000003,0.011529
83.59999999999997,0.0114739999999999
83.80000000000001,0.0065319999999999
84.00000000000006,0.0038809999999999
84.19999999999999,0.0014179999999999
84.40000000000003,-0.001414
84.59999999999997,-0.002408
84.80000000000001,-0.001719
85.00000000000006,0.000674
85.19999999999999,0.0018079999999999
85.40000000000003,0.004209
85.59999999999997,0.0045109999999999
85.80000000000001,0.004811
86.00000000000006,0.0030129999999999
86.19999999999999,0.002554
86.40000000000003,0.002199
86.59999999999997,0.0018309999999999
86.80000000000001,0.0015629999999999
87.00000000000006,0.0012889999999999
87.19999999999999,0.000601
87.40000000000003,-9.3999999999983e-05
87.59999999999997,0.000294
87.80000000000001,0.000564
88.00000000000006,0.000705
88.19999999999999,0.000195
88.40000000000003,-0.00089
88.59999999999997,-0.000698
88.80000000000001,0.000132
89.00000000000006,-2.000000000002e-05
89.19999999999999,0.0014319999999999
89.40000000000003,0.000767
89.59999999999997,-0.000209
89.80000000000001,-0.0023509999999999
90.00000000000006,-0.002197
90.2,-0.00369
90.40000000000003,-0.0034799999999999
90.59999999999997,-0.0046249999999999
90.8,-0.004078
91.00000000000006,-0.003846
91.2,-0.002209
91.40000000000003,0.0007849999999999
91.59999999999997,0.0042209999999999
91.8,0.0067269999999999
92.00000000000006,0.0083779999999999
92.2,0.0090569999999999
92.40000000000003,0.0083389999999999
92.59999999999997,0.0068699999999999
92.8,0.0057979999999999
93.00000000000006,0.0050839999999999
93.2,0.0058809999999999
93.40000000000003,0.007398
93.59999999999997,0.0085169999999999
93.8,0.008187
94.00000000000006,0.0055839999999999
94.2,0.0006369999999999
94.40000000000003,-0.003661
94.59999999999997,-0.006827
94.8,-0.006747
95.00000000000006,-0.004304
95.2,0.0003299999999999
95.40000000000003,0.0035589999999999
95.59999999999997,0.0051579999999999
95.8,0.0036169999999999
96.00000000000006,0.002751
96.2,0.001684
96.40000000000003,0.0009449999999999
96.59999999999997,0.001408
96.8,0.0032519999999999
97.00000000000006,0.0027659999999999
97.2,0.000782
97.40000000000003,-2.2999999999995246e-05
97.59999999999997,0.000344
97.8,0.001977
98.00000000000006,0.003128
98.2,0.003228
98.40000000000003,0.002431
98.59999999999997,0.002064
98.8,0.001379
99.00000000000006,0.0027189999999999
99.2,0.0052229999999999
99.40000000000003,0.0067969999999999
99.59999999999997,0.0051899999999999
99.8,0.004124
100.00000000000006,0.0024109999999999
100.2,0.001236
100.40000000000003,0.0003949999999999
100.59999999999997,0.000288
100.8,-0.0010339999999999
101.00000000000006,-0.0011059999999999
101.2,-0.001975
101.40000000000003,-0.002748
101.59999999999997,-0.0029509999999999
101.8,-0.0007349999999999
102.00000000000006,-0.000198
102.2,0.0015459999999999
102.40000000000003,0.0016309999999999
102.59999999999997,0.0008099999999999
102.8,-0.0034899999999999
103.00000000000006,-0.005107
103.2,-0.007039
103.40000000000003,-0.007122
103.59999999999997,-0.0055979999999999
103.8,-0.0017059999999999
104.00000000000006,8.299999999999974e-05
104.2,0.0016089999999999
104.40000000000003,0.002794
104.59999999999997,0.003545
104.8,0.0044199999999999
105.00000000000006,0.005357
105.2,0.005944
105.40000000000003,0.005261
105.59999999999997,0.0040169999999999
105.8,0.0028529999999999
106.00000000000006,0.0015879999999999
106.2,0.0012139999999999
106.40000000000003,0.002392
106.59999999999997,0.0043989999999999
106.8,0.003369
107.00000000000006,0.0033039999999999
107.2,0.0035359999999999
107.40000000000003,0.003877
107.59999999999997,0.002763
107.8,0.0047419999999999
108.00000000000006,0.0051729999999999
108.2,0.006118
108.40000000000003,0.0072229999999999
108.59999999999997,0.007815
108.8,0.0067499999999999
109.00000000000006,0.0067109999999999
109.2,0.0059409999999999
109.40000000000003,0.00406
109.59999999999997,0.0043969999999999
109.8,0.0043279999999999
110.00000000000006,0.003338
110.2,2.9000000000001247e-05
110.40000000000003,-0.002456
110.59999999999997,-0.004427
110.8,-0.0048159999999999
111.00000000000006,-0.0045029999999999
111.2,-0.0034009999999999
111.40000000000003,-0.002389
111.59999999999997,-0.001649
111.8,-0.0011269999999999
112.00000000000006,-0.0006809999999999
112.2,0.0028599999999999
112.40000000000003,0.00661
112.59999999999997,0.0089369999999999
112.8,0.0082419999999999
113.00000000000006,0.006911
113.2,0.0043909999999999
113.40000000000003,0.0025589999999999
113.59999999999997,0.0005979999999999
113.8,0.0008079999999999
114.00000000000006,0.0010089999999999
114.2,3.799999999998249e-05
114.40000000000003,-0.0014149999999999
114.59999999999997,-0.0006619999999999
114.8,0.0006269999999999
115.00000000000006,0.00306
115.2,0.0037039999999999
115.40000000000003,0.004035
115.59999999999997,0.0024009999999999
115.8,0.001099
116.00000000000006,6.299999999997974e-05
116.2,0.0005979999999999
116.40000000000003,0.0018309999999999
116.59999999999997,0.0044949999999999
116.8,0.0066149999999999
117.00000000000006,0.0075979999999999
117.2,0.0088369999999999
117.40000000000003,0.010257
117.59999999999997,0.01012
117.8,0.008647
118.00000000000006,0.006475
118.2,0.0041869999999999
118.40000000000003,0.001983
118.59999999999997,0.0013349999999999
118.8,0.0013279999999999
119.00000000000006,0.0020109999999999
119.2,0.002518
119.40000000000003,0.002734
119.59999999999997,0.0034569999999999
119.8,0.0028289999999999
120.00000000000006,0.0022419999999999
120.2,0.003427
120.40000000000003,0.004008
120.59999999999997,0.002701
120.8,0.0022869999999999
121.00000000000006,0.0032789999999999
121.2,0.0030029999999999
121.40000000000003,0.0022709999999999
121.59999999999997,0.0009879999999999
121.8,0.002037
122.00000000000006,0.0022099999999999
122.2,0.0010009999999999
122.40000000000003,0.0006439999999999
122.59999999999997,0.000838
122.8,-0.0002309999999999
123.00000000000006,-0.0009109999999999
123.2,-0.0009589999999999
123.40000000000003,-0.0009049999999999
123.59999999999997,-0.001275
123.8,-0.001864
124.00000000000006,-0.0027929999999999
124.2,-0.0020709999999999
124.40000000000003,-0.001087
124.59999999999997,0.000344
124.8,0.001307
125.00000000000006,0.0026539999999999
125.2,0.0035129999999999
125.40000000000003,0.005222
125.59999999999997,0.0061629999999999
125.8,0.0061269999999999
126.00000000000006,0.0044099999999999
126.2,0.0042179999999999
126.40000000000003,0.0025049999999999
126.59999999999997,0.003311
126.8,0.0039319999999999
127.00000000000006,0.0065419999999999
127.2,0.0069549999999999
127.40000000000003,0.0075509999999999
127.59999999999997,0.0062599999999999
127.8,0.0057719999999999
128.00000000000006,0.005274
128.2,0.0053549999999999
128.40000000000003,0.004782
128.59999999999997,0.006143
128.8,0.0081279999999999
129.00000000000006,0.0089619999999999
129.2,0.0089569999999999
129.40000000000003,0.0078619999999999
129.59999999999997,0.0051669999999999
129.8,0.0027189999999999
130.00000000000006,0.0011439999999999
130.2,-7.699999999999374e-05
130.40000000000003,-0.000477
130.59999999999997,-0.0015169999999999
130.8,-0.002863
131.00000000000006,-0.002277
131.2,0.000904
131.40000000000003,0.0043019999999999
131.59999999999997,0.0058409999999999
131.8,0.0079429999999999
132.00000000000006,0.0072809999999999
132.2,0.0037679999999999
132.40000000000003,-0.00047
132.59999999999997,-0.0035069999999999
132.8,-0.0055649999999999
133.00000000000006,-0.005777
133.2,-0.004344
133.40000000000003,-0.001066
133.59999999999997,0.003282
133.8,0.0049799999999999
134.00000000000006,0.003977
134.2,2.000000000002e-05
134.40000000000003,-0.003072
134.59999999999997,-0.00483
134.8,-0.005145
135.00000000000006,-0.004095
135.2,-0.000875
135.40000000000003,2.9999999999752447e-06
135.59999999999997,0.0006019999999999
135.8,0.000269
136.00000000000006,0.0003679999999999
136.2,-4.000000000004e-06
136.40000000000003,-3.4000000000034e-05
136.59999999999997,6.0000000000060005e-06
136.8,5.3999999999998494e-05
137.00000000000006,0.0001639999999999
137.2,-0.0004259999999999
137.40000000000003,-0.0002869999999999
137.59999999999997,-0.00047
137.8,0.0003849999999999
138.00000000000006,0.0014259999999999
138.2,0.0023039999999999
138.40000000000003,0.0033159999999999
138.59999999999997,0.0035009999999999
138.8,0.0048559999999999
139.00000000000006,0.00561
139.2,0.0071189999999999
139.40000000000003,0.00779
139.59999999999997,0.00806
139.8,0.0062119999999999
140.00000000000006,0.0045689999999999
140.2,0.003645
140.40000000000003,0.0035319999999999
140.59999999999997,0.003759
140.8,0.0046379999999999
141.00000000000006,0.003759
141.2,0.0025879999999999
141.40000000000003,0.002004
141.59999999999997,0.002419
141.8,0.00306
142.00000000000006,0.004004
142.2,0.004193
142.40000000000003,0.0032079999999999
142.59999999999997,0.003205
142.8,0.003504
143.00000000000006,0.0047019999999999
143.2,0.0041419999999999
143.40000000000003,0.0035739999999999
143.59999999999997,0.002568
143.8,0.0025249999999999
144.00000000000006,0.00211
144.2,0.002819
144.40000000000003,0.003278
144.59999999999997,0.002041
144.8,0.000672
145.00000000000006,-0.0004629999999999
145.2,0.0005529999999999
145.40000000000003,0.0027019999999999
145.59999999999997,0.0045609999999999
145.8,0.0046919999999999
146.00000000000006,0.004757
146.2,0.004763
146.40000000000003,0.0042769999999999
146.59999999999997,0.0033279999999999
146.8,0.0022719999999999
147.00000000000006,0.001166
147.2,0.000973
147.40000000000003,0.0007989999999999
147.59999999999997,0.0007269999999999
147.8,0.0005229999999999
148.00000000000006,0.002942
148.2,0.002346
148.40000000000003,0.0030229999999999
148.59999999999997,0.0057689999999999
148.8,0.0078239999999999
149.00000000000006,0.005784
149.2,0.0053249999999999
149.40000000000003,0.0036669999999999
149.59999999999997,0.002122
149.8,0.0028489999999999
150.00000000000006,0.0054339999999999
150.2,0.0057599999999999
150.40000000000003,0.004801
150.59999999999997,0.003554
150.8,0.0022619999999999
151.00000000000006,0.0007929999999999
151.2,0.001153
151.40000000000003,0.0008829999999999
151.59999999999997,2.9999999999752447e-06
151.8,-0.000873
152.00000000000006,-0.000161
152.2,0.0004419999999999
152.40000000000003,0.0036049999999999
152.59999999999997,0.005973
152.8,0.0048929999999999
153.00000000000006,0.0022249999999999
153.2,0.0009159999999999
153.40000000000003,-0.00089
153.59999999999997,-0.0022119999999999
153.8,0.000512
154.00000000000006,0.0038119999999999
154.2,0.004566
154.40000000000003,0.0056299999999999
154.59999999999997,0.0065319999999999
154.8,0.0064639999999999
155.00000000000006,0.0058389999999999
155.2,0.0055729999999999
155.40000000000003,0.0042969999999999
155.59999999999997,0.0014919999999999
155.8,-0.003337
156.00000000000006,-0.007827
156.2,-0.0113349999999999
156.40000000000003,-0.012327
156.59999999999997,-0.01068
156.8,-0.006336
157.00000000000006,-0.004276
157.2,-0.001423
157.40000000000003,-0.000862
157.59999999999997,0.000132
157.8,-0.0005729999999999
158.00000000000006,-0.000105
158.2,-0.0009279999999999
158.40000000000003,-0.002122
158.59999999999997,-0.0042719999999999
158.8,-0.005539
159.00000000000006,-0.006226
159.2,-0.0055399999999999
159.40000000000003,-0.003981
159.59999999999997,-0.002377
159.8,0.0001049999999999
160.00000000000006,0.00234
160.2,0.005282
160.40000000000003,0.0069899999999999
160.59999999999997,0.0085359999999999
160.8,0.0087979999999999
161.00000000000006,0.008533
161.2,0.0054609999999999
161.40000000000003,0.003176
161.59999999999997,0.000697
161.8,-0.001446
162.00000000000006,-0.001315
162.2,-0.000477
162.40000000000003,-6.40000000000085e-05
162.59999999999997,-0.00067
162.8,-0.001278
163.00000000000006,-0.003118
163.2,-0.004025
163.40000000000003,-0.003666
163.59999999999997,-0.003319
163.8,-0.003487
164.00000000000006,-0.002307
164.2,-0.001724
164.40000000000003,-0.0009399999999999
164.59999999999997,-0.000279
164.8,0.0010689999999999
165.00000000000006,0.0006849999999999
165.2,0.000566
165.40000000000003,0.0008299999999999
165.59999999999997,0.001184
165.8,0.0005279999999999
166.00000000000006,-0.0001209999999999
166.2,0.0004469999999999
166.40000000000003,-0.0005709999999999
166.59999999999997,-0.000335
166.8,0.001645
167.00000000000006,0.004616
167.2,0.0052229999999999
167.40000000000003,0.0049059999999999
167.59999999999997,0.004871
167.8,0.002927
168.00000000000006,0.0012679999999999
168.2,0.000842
168.40000000000003,6.20000000000065e-05
168.59999999999997,-0.000981
168.8,-0.0015769999999999
169.00000000000006,-0.003143
169.2,-0.006087
169.40000000000003,-0.004885
169.59999999999997,-0.0038659999999999
169.8,-0.001725
170.00000000000006,-0.0001229999999999
170.2,0.0023469999999999
170.40000000000003,0.0021109999999999
170.59999999999997,0.002126
170.8,0.0040089999999999
171.00000000000006,0.0063969999999999
171.2,0.0063449999999999
171.40000000000003,0.0054699999999999
171.59999999999997,0.0051459999999999
171.8,0.0026339999999999
172.00000000000006,0.0015239999999999
172.2,0.002396
172.40000000000003,0.003558
172.59999999999997,0.0023829999999999
172.8,0.0008389999999999
173.00000000000006,-0.000726
173.2,-0.002354
173.40000000000003,-0.003935
173.59999999999997,-0.004472
173.8,-0.004859
174.00000000000006,-0.0066249999999999
174.2,-0.006929
174.40000000000003,-0.007552
174.59999999999997,-0.007651
174.8,-0.0069359999999999
175.00000000000006,-0.004638
175.2,-0.003057
175.40000000000003,3.199999999997649e-05
175.59999999999997,0.0030749999999999
175.8,0.0043019999999999
176.00000000000006,0.003338
176.2,0.001425
176.40000000000003,-0.0001789999999999
176.59999999999997,-0.001688
176.8,-0.001902
177.00000000000006,-0.0023569999999999
177.2,-0.0017469999999999
177.40000000000003,-0.0007969999999999
177.59999999999997,0.001506
177.8,0.003624
178.00000000000006,0.0064339999999999
178.2,0.008593
178.40000000000003,0.008728
178.59999999999997,0.007718
178.8,0.0063199999999999
179.00000000000006,0.0054529999999999
179.2,0.0026309999999999
179.40000000000003,0.000543
179.59999999999997,-0.003168
179.8,-0.005662
180.00000000000006,-0.0074029999999999
180.2,-0.006269
180.40000000000003,-0.004197
180.6,-0.000228
180.8,0.0019
181.00000000000009,0.002927
181.2,0.0042389999999999
181.40000000000003,0.003904
181.6,0.00274
181.8,0.00206
182.00000000000009,0.0007209999999999
182.2,0.000392
182.40000000000003,0.001342
182.6,0.0033179999999999
182.8,0.0041129999999999
183.00000000000009,0.0046169999999999
183.2,0.0025839999999999
183.40000000000003,-0.000891
183.6,-0.005719
183.8,-0.010568
184.00000000000009,-0.0128289999999999
184.2,-0.0124549999999999
184.40000000000003,-0.010705
184.6,-0.008348
184.8,-0.004163
185.00000000000009,-0.001732
185.2,-0.0026789999999999
185.40000000000003,-0.0038949999999999
185.6,-0.0041209999999999
185.8,-0.0034959999999999
186.00000000000009,-0.002558
186.2,0.0008289999999999
186.40000000000003,0.00345
186.6,0.005979
186.8,0.0059639999999999
187.00000000000009,0.006483
187.2,0.0065479999999999
187.40000000000003,0.007429
187.6,0.0056519999999999
187.8,0.0041559999999999
188.00000000000009,0.0018269999999999
188.2,0.0011169999999999
188.40000000000003,0.001697
188.6,0.003981
188.8,0.0055669999999999
189.00000000000009,0.0062349999999999
189.2,0.0042729999999999
189.40000000000003,0.00251
189.6,0.0017909999999999
189.8,0.0017209999999999
190.00000000000009,0.0020689999999999
190.2,0.002622
190.40000000000003,0.001062
190.6,-0.0016539999999999
190.8,-0.0019819999999999
191.00000000000009,-0.0012739999999999
191.2,-0.000752
191.40000000000003,-0.000582
191.6,-0.000456
191.8,-0.000344
192.00000000000009,-0.000464
192.2,0.002143
192.40000000000003,0.006626
192.6,0.010998
192.8,0.0131839999999999
193.00000000000009,0.0140569999999999
193.2,0.0128729999999999
193.40000000000003,0.010311
193.6,0.008145
193.8,0.0065759999999999
194.00000000000009,0.0063209999999999
194.2,0.004838
194.40000000000003,0.003253
194.6,0.0016329999999999
194.8,1.6000000000016e-05
195.00000000000009,-0.002425
195.2,-0.004201
195.40000000000003,-0.004831
195.6,-0.0052429999999999
195.8,-0.0041979999999999
196.00000000000009,-0.002858
196.2,-0.003182
196.40000000000003,-0.004572
196.6,-0.00369
196.8,-0.002779
197.00000000000009,-0.0002019999999999
197.2,0.0021439999999999
197.40000000000003,0.0035399999999999
197.6,0.0013029999999999
197.8,-0.00112
198.00000000000009,-0.003908
198.2,-0.0033839999999999
198.40000000000003,-0.001601
198.6,-0.000501
198.8,-0.0023549999999999
199.00000000000009,-0.0048
199.2,-0.005817
199.40000000000003,-0.0046709999999999
199.6,-0.0015609999999999
199.8,0.001722
200.00000000000009,0.0028829999999999
200.2,0.0018219999999999
200.40000000000003,-0.000697
200.6,-0.0015689999999999
200.8,-0.0013409999999999
201.00000000000009,-0.0007349999999999
201.2,-5.900000000003125e-05
201.40000000000003,0.001728
201.6,0.000207
201.8,-0.0009149999999999
202.00000000000009,-0.000887
202.2,-0.0014009999999999
202.40000000000003,-0.004357
202.6,-0.005581
202.8,-0.0067679999999999
203.00000000000009,-0.0071439999999999
203.2,-0.005406
203.40000000000003,-0.004155
203.6,-0.003394
203.8,-0.003703
204.00000000000009,-0.0023259999999999
204.2,-0.0035979999999999
204.40000000000003,-0.0041769999999999
204.6,-0.004383
204.8,-0.0036789999999999
205.00000000000009,-0.004597
205.2,-0.0054029999999999
205.40000000000003,-0.006676
205.6,-0.006597
205.8,-0.00784
206.00000000000009,-0.009103
206.2,-0.0086109999999999
206.40000000000003,-0.005194
206.6,-0.004058
206.8,-0.000288
207.00000000000009,0.0026419999999999
207.2,0.0024449999999999
207.40000000000003,0.0010819999999999
207.6,0.001334
207.8,-1.0000000000287557e-06
208.00000000000009,-0.001663
208.2,-0.001304
208.40000000000003,-0.0020089999999999
208.6,-0.0040319999999999
208.8,-0.0055459999999999
209.00000000000009,-0.0065729999999999
209.2,-0.0069879999999999
209.40000000000003,-0.006468
209.6,-0.005682
209.8,-0.0043139999999999
210.00000000000009,-0.002638
210.2,-0.0004899999999999
210.40000000000003,0.0004139999999999
210.6,0.001863
210.8,0.002738
211.00000000000009,0.0025519999999999
211.2,0.0009689999999999
211.40000000000003,0.0002119999999999
211.6,0.0009339999999999
211.8,0.001035
212.00000000000009,0.001226
212.2,0.0014719999999999
212.40000000000003,0.0021049999999999
212.6,0.0010589999999999
212.8,-0.0006229999999999
213.00000000000009,-0.001506
213.2,-0.001431
213.40000000000003,-0.001348
213.6,-0.000475
213.8,0.0007769999999999
214.00000000000009,0.0013839999999999
214.2,0.0004509999999999
214.40000000000003,0.0009409999999999
214.6,-0.0002329999999999
214.8,-0.000802
215.00000000000009,-0.00179
215.2,-0.002053
215.40000000000003,-0.003695
215.6,-0.0042579999999999
215.8,-0.004823
216.00000000000009,-0.004558
216.2,-0.0036559999999999
216.40000000000003,-0.0034359999999999
216.6,-0.0030669999999999
216.8,-0.001696
217.00000000000009,-0.001178
217.2,-0.00169
217.40000000000003,-0.003877
217.6,-0.0071019999999999
217.8,-0.0093329999999999
218.00000000000009,-0.0101789999999999
218.2,-0.0102829999999999
218.40000000000003,-0.0092269999999999
218.6,-0.007856
218.8,-0.0071709999999999
219.00000000000009,-0.007688
219.2,-0.0078739999999999
219.40000000000003,-0.008365
219.6,-0.006365
219.8,-0.003751
220.00000000000009,0.0003349999999999
220.2,0.0046769999999999
220.40000000000003,0.0091249999999999
220.6,0.010579
220.8,0.009369
221.00000000000009,0.007415
221.2,0.003114
221.40000000000003,-0.000223
221.6,-0.00269
221.8,-0.0036459999999999
222.00000000000009,-0.0036599999999999
222.2,-0.001259
222.40000000000003,0.0008309999999999
222.6,0.003531
222.8,0.004139
223.00000000000009,0.0038559999999999
223.2,0.0020419999999999
223.40000000000003,0.0010759999999999
223.6,-0.0024339999999999
223.8,-0.0044299999999999
224.00000000000009,-0.006518
224.2,-0.00628
224.40000000000003,-0.0062949999999999
224.6,-0.005238
224.8,-0.003819
225.00000000000009,-0.001582
225.2,-0.001439
225.40000000000003,-0.001727
225.6,-0.001574
225.8,-0.001089
226.00000000000009,-0.000472
226.2,0.0012499999999999
226.40000000000003,0.0029119999999999
226.6,0.0044069999999999
226.8,0.0043509999999999
227.00000000000009,0.0027119999999999
227.2,0.0022729999999999
227.40000000000003,0.0019199999999999
227.6,0.0001379999999999
227.8,-0.0022989999999999
228.00000000000009,-0.0018159999999999
228.2,-0.002471
228.40000000000003,-0.004169
228.6,-0.005475
228.8,-0.004263
229.00000000000009,-0.0041169999999999
229.2,-0.004084
229.40000000000003,-0.0037949999999999
229.6,-0.002377
229.8,-0.001336
230.00000000000009,-0.0007429999999999
230.2,-0.000925
230.40000000000003,-0.0010399999999999
230.6,-0.000894
230.8,-0.002557
231.00000000000009,-0.0064239999999999
231.2,-0.009438
231.40000000000003,-0.010771
231.6,-0.0113099999999999
231.8,-0.009676
232.00000000000009,-0.0065359999999999
232.2,-0.0042809999999999
232.40000000000003,-0.002833
232.6,-0.001149
232.8,-0.000975
233.00000000000009,-3.500000000000725e-05
233.2,0.002728
233.40000000000003,0.0040279999999999
233.6,0.00433
233.8,0.0041399999999999
234.00000000000009,0.002942
234.2,0.00018
234.40000000000003,-0.001043
234.6,-0.002458
234.8,-0.003425
235.00000000000009,-0.003389
235.2,-0.002919
235.40000000000003,-0.004224
235.6,-0.0069739999999999
235.8,-0.007827
236.00000000000009,-0.0075
236.2,-0.007033
236.40000000000003,-0.004501
236.6,-0.0007989999999999
236.8,0.002591
237.00000000000009,0.0031249999999999
237.2,0.001873
237.40000000000003,0.0004839999999999
237.6,-0.000645
237.8,-0.0034799999999999
238.00000000000009,-0.004201
238.2,-0.0023199999999999
238.40000000000003,0.0008319999999999
238.6,0.0030419999999999
238.8,0.0057869999999999
239.00000000000009,0.006079
239.2,0.0048839999999999
239.40000000000003,0.0026999999999999
239.6,0.001931
239.8,0.0004219999999999
240.00000000000009,0.000321
240.2,-0.000294
240.40000000000003,-0.002539
240.6,-0.00496
240.8,-0.0067349999999999
241.00000000000009,-0.00674
241.2,-0.0068429999999999
241.40000000000003,-0.006516
241.6,-0.0058929999999999
241.8,-0.004942
242.00000000000009,-0.002862
242.2,0.000543
242.40000000000003,0.002054
242.6,0.0021149999999999
242.8,0.0021899999999999
243.00000000000009,-0.0007369999999999
243.2,-0.0041249999999999
243.40000000000003,-0.0046459999999999
243.6,-0.004634
243.8,-0.0045069999999999
244.00000000000009,-0.00375
244.2,-0.002893
244.40000000000003,-0.002968
244.6,-0.0020459999999999
244.8,-0.000881
245.00000000000009,3.700000000000925e-05
245.2,0.0002869999999999
245.40000000000003,0.0003879999999999
245.6,-0.001086
245.8,-0.002149
246.00000000000009,-0.0042449999999999
246.2,-0.0047059999999999
246.40000000000003,-0.004377
246.6,-0.0028989999999999
246.8,-0.001574
247.00000000000009,0.0006209999999999
247.2,0.0027139999999999
247.40000000000003,0.0037439999999999
247.6,0.0048219999999999
247.8,0.003794
248.00000000000009,0.002811
248.2,0.0005489999999999
248.40000000000003,0.0004179999999999
248.6,0.0009379999999999
248.8,0.002178
249.00000000000009,0.003724
249.2,0.0058929999999999
249.40000000000003,0.005751
249.6,0.003452
249.8,0.001917
250.00000000000009,0.0006349999999999
250.2,-0.001225
250.40000000000003,-0.001972
250.6,-0.001259
250.8,-0.0009689999999999
251.00000000000009,-0.0018679999999999
251.2,-0.002694
251.40000000000003,-0.0035709999999999
251.6,-0.003898
251.8,-0.0046869999999999
252.00000000000009,-0.004416
252.2,-0.0022159999999999
252.40000000000003,-0.001163
252.6,-0.001085
252.8,-0.0008239999999999
253.00000000000009,-0.001388
253.2,-0.0028449999999999
253.40000000000003,-0.00383
253.6,-0.003937
253.8,-0.0042849999999999
254.00000000000009,-0.0032619999999999
254.2,-0.004611
254.40000000000003,-0.006244
254.6,-0.008095
254.8,-0.0095379999999999
255.00000000000009,-0.012201
255.2,-0.01191
255.40000000000003,-0.01011
255.6,-0.007307
255.8,-0.004518
256.00000000000006,-0.002471
256.2,-0.001198
256.40000000000003,-0.000717
256.6,-0.0002909999999999
256.8,0.000981
257.00000000000006,0.0027329999999999
257.2,0.0034369999999999
257.40000000000003,0.0045499999999999
257.6,0.004701
257.8,0.00311
258.00000000000006,0.0005539999999999
258.2,-0.002257
258.40000000000003,-0.00595
258.6,-0.007987
258.8,-0.007937
259.00000000000006,-0.005138
259.2,-0.00168
259.40000000000003,0.0022209999999999
259.6,0.002871
259.8,0.002836
260.00000000000006,0.0009649999999999
260.2,-0.0002429999999999
260.40000000000003,-0.0012099999999999
260.6,0.000309
260.8,0.001707
261.00000000000006,0.004307
261.2,0.0049659999999999
261.40000000000003,0.0053869999999999
261.6,0.004315
261.8,0.0030009999999999
262.00000000000006,0.0005959999999999
262.2,-0.000589
262.40000000000003,-0.001595
262.6,-0.002497
262.8,-0.003632
263.00000000000006,-0.002803
263.2,-0.003066
263.40000000000003,-0.0021789999999999
263.6,-0.0009959999999999
263.8,-0.000323
264.00000000000006,-0.001549
264.2,-0.002707
264.40000000000003,-0.005207
264.6,-0.0079509999999999
264.8,-0.006599
265.00000000000006,-0.0043779999999999
265.2,-0.0022659999999999
265.40000000000003,-0.002151
265.6,-0.0003319999999999
265.8,0.0009379999999999
266.00000000000006,0.000618
266.2,0.0017269999999999
266.40000000000003,0.0037149999999999
266.6,0.0043279999999999
266.8,0.000701
267.00000000000006,-0.001115
267.2,-0.002516
267.40000000000003,-0.003319
267.6,-0.005759
267.8,-0.005215
268.00000000000006,-0.0034759999999999
268.2,-0.00197
268.40000000000003,-0.0011269999999999
268.6,0.001954
268.8,0.0035319999999999
269.00000000000006,0.00329
269.2,0.0019159999999999
269.40000000000003,0.0006979999999999
269.6,-7.099999999998774e-05
269.8,0.0015819999999999
270.00000000000006,0.001956
270.2,0.0015749999999999
270.40000000000003,0.0019469999999999
270.6,0.0024759999999999
270.8,0.0003529999999999
271.00000000000006,-0.0004109999999999
271.2,0.000516
271.40000000000003,0.0009199999999999
271.6,-0.0007739999999999
271.8,-0.0012199999999999
272.00000000000006,-0.001292
272.2,-0.000522
272.40000000000003,0.0017119999999999
272.6,0.003394
272.8,0.0029379999999999
273.00000000000006,0.00212
273.2,-5.700000000002925e-05
273.40000000000003,-0.002693
273.6,-0.002944
273.8,-0.003307
274.00000000000006,-0.004197
274.2,-0.0033699999999999
274.40000000000003,-0.00192
274.6,-0.0007699999999999
274.8,0.000786
275.00000000000006,0.0035649999999999
275.2,0.004985
275.40000000000003,0.00517
275.6,0.0039919999999999
275.8,0.0027659999999999
276.00000000000006,0.000933
276.2,0.0008679999999999
276.40000000000003,0.002043
276.6,0.0017999999999999
276.8,0.0017679999999999
277.00000000000006,0.0033739999999999
277.2,0.002898
277.40000000000003,0.0020219999999999
277.6,0.001954
277.8,0.002014
278.00000000000006,-0.0003549999999999
278.2,-0.0034569999999999
278.40000000000003,-0.0048449999999999
278.6,-0.0066519999999999
278.8,-0.006491
279.00000000000006,-0.007286
279.2,-0.005275
279.40000000000003,-0.00447
279.6,-0.0022199999999999
279.8,-0.002018
280.00000000000006,-0.000529
280.2,-0.0014649999999999
280.40000000000003,-0.0033659999999999
280.6,-0.0058159999999999
280.8,-0.0042679999999999
281.00000000000006,-0.002643
281.2,-0.000802
281.40000000000003,-0.0003759999999999
281.6,0.0004799999999999
281.8,-0.001224
282.00000000000006,-0.002483
282.2,-0.002585
282.40000000000003,-0.0011349999999999
282.6,7.699999999999374e-05
282.8,0.0002369999999999
283.00000000000006,-0.0003759999999999
283.2,-0.000765
283.40000000000003,-0.0007199999999999
283.6,-0.0008179999999999
283.8,-0.0011329999999999
284.00000000000006,0.000253
284.2,0.0013819999999999
284.40000000000003,0.001269
284.6,0.002259
284.8,0.0032999999999999
285.00000000000006,0.0026809999999999
285.2,0.0014799999999999
285.40000000000003,0.0002729999999999
285.6,-0.001475
285.8,-0.001591
286.00000000000006,-0.000837
286.2,-0.002193
286.40000000000003,-0.00212
286.6,-0.0027059999999999
286.8,-0.003222
287.00000000000006,-0.002993
287.2,-0.002209
287.40000000000003,-0.0030149999999999
287.6,-0.00302
287.8,-0.0028719999999999
288.00000000000006,-0.0027119999999999
288.2,-0.0019399999999999
288.40000000000003,7.099999999998774e-05
288.6,0.0013079999999999
288.8,-0.000751
289.00000000000006,-0.0055769999999999
289.2,-0.008276
289.40000000000003,-0.009218
289.6,-0.0097909999999999
289.8,-0.008805
290.00000000000006,-0.004952
290.2,-0.002669
290.40000000000003,-0.003253
290.6,-0.002707
290.8,-0.000705
291.00000000000006,0.0004239999999999
291.2,0.001039
291.40000000000003,0.0026619999999999
291.6,0.0030229999999999
291.8,0.001879
292.00000000000006,0.0009259999999999
292.2,0.0005939999999999
292.40000000000003,-2.9000000000001247e-05
292.6,-0.0012869999999999
292.8,-0.001588
293.00000000000006,-0.0020459999999999
293.2,-0.001842
293.40000000000003,-0.001006
293.6,0.0004139999999999
293.8,0.0022709999999999
294.00000000000006,0.0024399999999999
294.2,0.0024799999999999
294.40000000000003,0.0014049999999999
294.6,-0.000699
294.8,-0.003721
295.00000000000006,-0.005819
295.2,-0.007887
295.40000000000003,-0.009377
295.6,-0.008492
295.8,-0.007464
296.00000000000006,-0.006977
296.2,-0.0058909999999999
296.40000000000003,-0.0042159999999999
296.6,-0.003225
296.8,-0.002265
297.00000000000006,0.000668
297.2,0.0038819999999999
297.40000000000003,0.0033059999999999
297.6,0.002452
297.8,0.001666
298.00000000000006,-5.000000000032756e-06
298.2,-0.003813
298.40000000000003,-0.0047889999999999
298.6,-0.004574
298.8,-0.005236
299.00000000000006,-0.0055379999999999
299.2,-0.003389
299.40000000000003,-0.0024779999999999
299.6,-0.003779
299.7999999999999,-0.003879
299.99999999999994,-0.004309
300.1999999999999,-0.005742
300.3999999999999,-0.007657
300.6,-0.010771
300.7999999999999,-0.014011
300.99999999999994,-0.01673
301.1999999999999,-0.016895
301.3999999999999,-0.014701
301.6,-0.012624
301.7999999999999,-0.010853
301.99999999999994,-0.009644
302.1999999999999,-0.00996
302.3999999999999,-0.01128
302.6,-0.011526
302.7999999999999,-0.011373
302.99999999999994,-0.010348
303.1999999999999,-0.010225
303.3999999999999,-0.01004
303.6,-0.009787
303.7999999999999,-0.008123
303.99999999999994,-0.006158
304.1999999999999,-0.003217
304.3999999999999,-0.000162
304.6,-5.700000000002925e-05
304.7999999999999,-0.000311
304.99999999999994,-0.002189
305.1999999999999,-0.004394
305.3999999999999,-0.007302
305.6,-0.007082
305.7999999999999,-0.007208
305.99999999999994,-0.006412
306.1999999999999,-0.005172
306.3999999999999,-0.004439
306.6,-0.005645
306.7999999999999,-0.008367
306.99999999999994,-0.013129
307.1999999999999,-0.016232
307.3999999999999,-0.015142
307.6,-0.012566
307.7999999999999,-0.010252
307.99999999999994,-0.007698
308.1999999999999,-0.007117
308.3999999999999,-0.008916
308.6,-0.010654
308.7999999999999,-0.01071
308.99999999999994,-0.009363
309.1999999999999,-0.007654
309.3999999999999,-0.0074
309.6,-0.006379
309.7999999999999,-0.006759
309.99999999999994,-0.007321
310.1999999999999,-0.008356
310.3999999999999,-0.009016
310.6,-0.010627
310.7999999999999,-0.010941
310.99999999999994,-0.010074
311.1999999999999,-0.008174
311.3999999999999,-0.006479
311.6,-0.004824
311.7999999999999,-0.002604
311.99999999999994,-0.002919
312.1999999999999,-0.004973
312.3999999999999,-0.006005
312.6,-0.005648
312.7999999999999,-0.007145
312.99999999999994,-0.006135
313.1999999999999,-0.003929
313.3999999999999,-0.002498
313.6,-0.003246
313.7999999999999,-0.003819
313.99999999999994,-0.005248
314.1999999999999,-0.006848
314.3999999999999,-0.007127
314.6,-0.007097
314.7999999999999,-0.005374
314.99999999999994,-0.00541
315.1999999999999,-0.005239
315.3999999999999,-0.006129
315.6,-0.005175
315.7999999999999,-0.005481
315.99999999999994,-0.006159
316.1999999999999,-0.007536
316.3999999999999,-0.009008
316.6,-0.012354
316.7999999999999,-0.015024
316.99999999999994,-0.015713
317.1999999999999,-0.015764
317.3999999999999,-0.012936
317.6,-0.009719
317.7999999999999,-0.008077
317.99999999999994,-0.007555
318.1999999999999,-0.007707
318.3999999999999,-0.010898
318.6,-0.013393
318.7999999999999,-0.016217
318.99999999999994,-0.018466
319.1999999999999,-0.0196
319.3999999999999,-0.017902
319.6,-0.01549
319.7999999999999,-0.013379
319.99999999999994,-0.011712
320.1999999999999,-0.010459
320.3999999999999,-0.010915
320.6,-0.011583
320.7999999999999,-0.011067
320.99999999999994,-0.008436
321.1999999999999,-0.006935
321.3999999999999,-0.006844
321.6,-0.007382
321.7999999999999,-0.006498
321.99999999999994,-0.008532
322.1999999999999,-0.009605
322.3999999999999,-0.00921
322.6,-0.0082
322.7999999999999,-0.009073
322.99999999999994,-0.006932
323.1999999999999,-0.005745
323.3999999999999,-0.005632
323.6,-0.006478
323.7999999999999,-0.005907
323.99999999999994,-0.007295
324.1999999999999,-0.006968
324.3999999999999,-0.007068
324.6,-0.008705
324.7999999999999,-0.011016
324.99999999999994,-0.013216
325.1999999999999,-0.017198
325.3999999999999,-0.019937
325.6,-0.019412
325.7999999999999,-0.017782
325.99999999999994,-0.014896
326.1999999999999,-0.010306
326.3999999999999,-0.008614
326.6,-0.008167
326.7999999999999,-0.008429
326.99999999999994,-0.009116
327.1999999999999,-0.01131
327.3999999999999,-0.010854
327.6,-0.010297
327.7999999999999,-0.009834
327.99999999999994,-0.008801
328.1999999999999,-0.008464
328.3999999999999,-0.007998
328.6,-0.007857
328.7999999999999,-0.00911
328.99999999999994,-0.011473
329.1999999999999,-0.011015
329.3999999999999,-0.011381
329.6,-0.012556
329.7999999999999,-0.011848
329.99999999999994,-0.009293
330.1999999999999,-0.008577
330.3999999999999,-0.008724
330.6,-0.008396
330.7999999999999,-0.008086
330.99999999999994,-0.00799
331.1999999999999,-0.006963
331.3999999999999,-0.005792
331.6,-0.005487
331.7999999999999,-0.007043
331.99999999999994,-0.009781
332.1999999999999,-0.01484
332.3999999999999,-0.017528
332.6,-0.01941
332.7999999999999,-0.01916
332.99999999999994,-0.01776
333.1999999999999,-0.014344
333.3999999999999,-0.012379
333.6,-0.009056
333.7999999999999,-0.006271
333.99999999999994,-0.004211
334.1999999999999,-0.003209
334.3999999999999,-0.001527
334.6,-0.001958
334.7999999999999,-0.003387
334.99999999999994,-0.006194
335.1999999999999,-0.007434
335.3999999999999,-0.009341
335.6,-0.009435
335.7999999999999,-0.008949
335.99999999999994,-0.009002
336.1999999999999,-0.010041
336.3999999999999,-0.010484
336.6,-0.01139
336.7999999999999,-0.012417
336.99999999999994,-0.010791
337.1999999999999,-0.009685
337.3999999999999,-0.008988
337.6,-0.008686
337.7999999999999,-0.009096
337.99999999999994,-0.010377
338.1999999999999,-0.011475
338.3999999999999,-0.012728
338.6,-0.012505
338.7999999999999,-0.012057
338.99999999999994,-0.011437
339.1999999999999,-0.010855
339.3999999999999,-0.010306
339.6,-0.011713
339.7999999999999,-0.012711
339.99999999999994,-0.015511
340.1999999999999,-0.016028
340.3999999999999,-0.015391
340.6,-0.012946
340.7999999999999,-0.010935
340.99999999999994,-0.008143
341.1999999999999,-0.007889
341.3999999999999,-0.008012
341.6,-0.009401
341.7999999999999,-0.01143
341.99999999999994,-0.012058
342.1999999999999,-0.011517
342.3999999999999,-0.009542
342.6,-0.00895
342.7999999999999,-0.006382
342.99999999999994,-0.004422
343.1999999999999,-0.004131
343.3999999999999,-0.004811
343.6,-0.002307
343.7999999999999,-0.002756
343.99999999999994,-0.00342
344.1999999999999,-0.004349
344.3999999999999,-0.005275
344.6,-0.007292
344.7999999999999,-0.005415
344.99999999999994,-0.004929
345.1999999999999,-0.003954
345.3999999999999,-0.003187
345.6,-0.002427
345.7999999999999,-0.00498
345.99999999999994,-0.00531
346.1999999999999,-0.005721
346.3999999999999,-0.006881
346.6,-0.0076
346.7999999999999,-0.004603
346.99999999999994,-0.005886
347.1999999999999,-0.005214
347.3999999999999,-0.001982
347.6,-0.00128
347.7999999999999,-0.002789
347.99999999999994,-0.000369
348.1999999999999,-7.500000000004725e-05
348.3999999999999,-0.003408
348.6,-0.00499
348.7999999999999,-0.005848
348.99999999999994,-0.007254
349.1999999999999,-0.00905
349.3999999999999,-0.010419
349.6,-0.011878
349.7999999999999,-0.012754
349.99999999999994,-0.012186
350.1999999999999,-0.010343
350.3999999999999,-0.007748
350.6,-0.005442
350.7999999999999,-0.005462
350.99999999999994,-0.004424
351.1999999999999,-0.004404
351.3999999999999,-0.006611
351.6,-0.008609
351.7999999999999,-0.008994
351.99999999999994,-0.012049
352.1999999999999,-0.012848
352.3999999999999,-0.010505
352.6,-0.007566
352.7999999999999,-0.004858
352.99999999999994,-0.004187
353.1999999999999,-0.006147
353.3999999999999,-0.01022
353.6,-0.015219
353.7999999999999,-0.019777
353.99999999999994,-0.021176
354.1999999999999,-0.018756
354.3999999999999,-0.01489
354.6,-0.009879
354.7999999999999,-0.005612
354.99999999999994,-0.003851
355.1999999999999,-0.004996
355.3999999999999,-0.005898
355.6,-0.006752
355.7999999999999,-0.009861
355.99999999999994,-0.011235
356.1999999999999,-0.011174
356.3999999999999,-0.012128
356.6,-0.014095
356.7999999999999,-0.013016
356.99999999999994,-0.01201
357.1999999999999,-0.011933
357.3999999999999,-0.010752
357.6,-0.010051
357.7999999999999,-0.009885
357.99999999999994,-0.008238
358.1999999999999,-0.006714
358.3999999999999,-0.003591
358.6,-0.001202
358.7999999999999,0.0007829999999999
358.99999999999994,0.0003749999999999
359.1999999999999,0.0014639999999999
359.3999999999999,-0.00151
359.6,-0.002719
359.7999999999999,-0.002939
359.99999999999994,-0.002474
360.1999999999999,-0.003256
360.3999999999999,-0.001741
360.6,-0.000813
360.7999999999999,-0.000251
361.0,-0.00119
361.1999999999999,-0.001498
361.3999999999999,-0.003323
361.6,-0.004995
361.7999999999999,-0.006796
362.0,-0.006158
362.1999999999999,-0.004728
362.3999999999999,-0.002411
362.6,-0.00143
362.7999999999999,-0.001548
363.0,-0.001665
363.1999999999999,-0.004777
363.3999999999999,-0.006227
363.6,-0.007531
363.7999999999999,-0.008877
364.0,-0.009627
364.1999999999999,-0.008713
364.3999999999999,-0.00948
364.6,-0.0107
364.7999999999999,-0.011299
365.0,-0.012852
365.1999999999999,-0.01439
365.3999999999999,-0.014244
365.6,-0.0135
365.7999999999999,-0.010138
366.0,-0.007992
366.1999999999999,-0.005846
366.3999999999999,-0.005998
366.6,-0.002823
366.7999999999999,-0.003272
367.0,-0.004564
367.1999999999999,-0.006496
367.3999999999999,-0.007595
367.6,-0.010498
367.7999999999999,-0.009887
368.0,-0.007536
368.1999999999999,-0.005549
368.3999999999999,-0.002512
368.6,-0.000236
368.7999999999999,0.0004579999999999
369.0,-0.000929
369.1999999999999,-0.002071
369.3999999999999,-0.003468
369.6,-0.005443
369.7999999999999,-0.007752
370.0,-0.009553
370.1999999999999,-0.01077
370.3999999999999,-0.010013
370.6,-0.008505
370.7999999999999,-0.007228
371.0,-0.004736
371.1999999999999,-0.003004
371.3999999999999,-0.005131
371.6,-0.00568
371.7999999999999,-0.006383
372.0,-0.007414
372.1999999999999,-0.00663
372.3999999999999,-0.003653
372.6,-0.0038
372.7999999999999,-0.004344
373.0,-0.00472
373.1999999999999,-0.005788
373.3999999999999,-0.006788
373.6,-0.006823
373.7999999999999,-0.008392
374.0,-0.007933
374.1999999999999,-0.007475
374.3999999999999,-0.007535
374.6,-0.007253
374.7999999999999,-0.005687
375.0,-0.005414
375.1999999999999,-0.004963
375.3999999999999,-0.004333
375.6,-0.00423
375.7999999999999,-0.004993
376.0,-0.00591
376.1999999999999,-0.008553
376.3999999999999,-0.012389
376.6,-0.014157
376.7999999999999,-0.014403
377.0,-0.014097
377.1999999999999,-0.011656
377.3999999999999,-0.008704
377.6,-0.008089
377.7999999999999,-0.00658
378.0,-0.006119
378.1999999999999,-0.00751
378.3999999999999,-0.008059
378.6,-0.007209
378.7999999999999,-0.006614
379.0,-0.006409
379.1999999999999,-0.005705
379.3999999999999,-0.007539
379.6,-0.008192
379.7999999999999,-0.008029
380.0,-0.006387
380.1999999999999,-0.003551
380.3999999999999,-0.000815
380.6,0.0001429999999999
380.7999999999999,0.0014469999999999
381.0,0.0008549999999999
381.1999999999999,-0.002141
381.3999999999999,-0.00351
381.6,-0.003549
381.7999999999999,-0.004341
382.0,-0.005179
382.1999999999999,-0.003588
382.3999999999999,-0.003684
382.6,-0.003534
382.7999999999999,-0.003273
383.0,-0.004421
383.1999999999999,-0.007003
383.3999999999999,-0.007562
383.6,-0.006346
383.7999999999999,-0.007575
384.0,-0.005057
384.1999999999999,-0.001913
384.3999999999999,0.0009529999999999
384.6,-0.000209
384.7999999999999,0.0011479999999999
385.0,4.699999999996374e-05
385.1999999999999,-0.001029
385.3999999999999,-0.004188
385.6,-0.005268
385.7999999999999,-0.008195
386.0,-0.00827
386.1999999999999,-0.010219
386.3999999999999,-0.01027
386.6,-0.008748
386.7999999999999,-0.005752
387.0,-0.005665
387.1999999999999,-0.003213
387.3999999999999,-0.001094
387.6,-0.001356
387.7999999999999,-0.003306
388.0,-0.00346
388.1999999999999,-0.004189
388.3999999999999,-0.004935
388.6,-0.007595
388.7999999999999,-0.008982
389.0,-0.01026
389.1999999999999,-0.009233
389.3999999999999,-0.008
389.6,-0.006669
389.7999999999999,-0.005811
390.0,-0.006015
390.1999999999999,-0.007276
390.3999999999999,-0.010526
390.6,-0.013175
390.7999999999999,-0.014932
391.0,-0.01597
391.1999999999999,-0.01855
391.3999999999999,-0.017394
391.6,-0.015178
391.7999999999999,-0.013901
392.0,-0.012857
392.1999999999999,-0.009975
392.3999999999999,-0.009623
392.6,-0.009648
392.7999999999999,-0.009094
393.0,-0.009357
393.1999999999999,-0.009851
393.3999999999999,-0.009618
393.6,-0.009676
393.7999999999999,-0.010138
394.0,-0.00876
394.1999999999999,-0.009547
394.3999999999999,-0.00948
394.6,-0.008336
394.7999999999999,-0.006847
395.0,-0.007418
395.1999999999999,-0.006257
395.3999999999999,-0.005428
395.6,-0.00566
395.7999999999999,-0.00675
396.0,-0.00761
396.1999999999999,-0.009689
396.3999999999999,-0.010873
396.6,-0.012074
396.7999999999999,-0.013427
397.0,-0.014729
397.1999999999999,-0.013688
397.3999999999999,-0.013135
397.6,-0.010624
397.7999999999999,-0.00995
398.0,-0.010202
398.1999999999999,-0.010888
398.3999999999999,-0.011197
398.6,-0.013354
398.7999999999999,-0.014944
399.0,-0.014201
399.1999999999999,-0.014874
399.3999999999999,-0.015202
399.6,-0.01376
399.7999999999999,-0.010766
400.0,-0.008267
400.1999999999999,-0.00549
400.3999999999999,-0.003126
400.6,-0.003535
400.7999999999999,-0.004266
401.0,-0.006115
401.1999999999999,-0.006159
401.3999999999999,-0.00663
401.6,-0.005846
401.7999999999999,-0.00491
402.0,-0.003018
402.1999999999999,-0.003721
402.3999999999999,-0.004258
402.6,-0.004685
402.7999999999999,-0.004548
403.0,-0.005818
403.1999999999999,-0.004933
403.3999999999999,-0.006499
403.6,-0.009138
403.7999999999999,-0.009944
404.0,-0.008661
404.1999999999999,-0.008893
404.3999999999999,-0.006985
404.6,-0.002893
404.7999999999999,-0.001563
405.0,-0.001689
405.1999999999999,-0.002983
405.3999999999999,-0.004714
405.6,-0.006534
405.7999999999999,-0.007499
406.0,-0.008919
406.1999999999999,-0.011875
406.3999999999999,-0.01291
406.6,-0.013404
406.7999999999999,-0.014431
407.0,-0.013281
407.1999999999999,-0.01035
407.3999999999999,-0.009526
407.6,-0.010145
407.7999999999999,-0.010222
408.0,-0.00939
408.1999999999999,-0.006422
408.3999999999999,-0.004083
408.6,-0.002264
408.7999999999999,-0.000808
409.0,-0.001604
409.1999999999999,-0.00607
409.3999999999999,-0.008183
409.6,-0.009749
409.7999999999999,-0.010834
410.0,-0.0105
410.1999999999999,-0.0083
410.3999999999999,-0.008152
410.6,-0.007995
410.7999999999999,-0.005623
411.0,-0.006321
411.1999999999999,-0.006915
411.3999999999999,-0.007113
411.6,-0.004435
411.7999999999999,-0.004819
412.0,-0.003021
412.1999999999999,-0.001707
412.3999999999999,-0.002282
412.6,-0.005714
412.7999999999999,-0.008378
413.0,-0.012303
413.1999999999999,-0.012797
413.3999999999999,-0.011759
413.6,-0.011308
413.7999999999999,-0.011427
414.0,-0.011552
414.1999999999999,-0.012409
414.3999999999999,-0.011625
414.6,-0.009152
414.7999999999999,-0.004526
415.0,0.0002729999999999
415.1999999999999,0.0013509999999999
415.3999999999999,-0.000963
415.6,-0.00402
415.7999999999999,-0.008096
416.0,-0.009226
416.1999999999999,-0.009466
416.3999999999999,-0.006879
416.6,-0.00575
416.7999999999999,-0.004106
417.0,-0.004216
417.1999999999999,-0.003229
417.3999999999999,-0.003262
417.6,-0.002918
417.7999999999999,-0.004029
418.0,-0.005326
418.1999999999999,-0.005704
418.3999999999999,-0.006191
418.6,-0.005412
418.7999999999999,-0.0044
419.0,-0.003411
419.1999999999999,-0.002916
419.3999999999999,-0.002184
419.6,-0.00358
419.7999999999999,-0.005774
420.0,-0.007854
420.1999999999999,-0.010266
420.3999999999999,-0.013148
420.6,-0.01323
420.7999999999999,-0.012565
421.0,-0.013422
421.1999999999999,-0.014179
421.3999999999999,-0.011665
421.6,-0.00944
421.7999999999999,-0.007643
422.0,-0.005539
422.1999999999999,-0.003359
422.3999999999999,-0.004357
422.6,-0.004148
422.7999999999999,-0.00316
423.0,-0.000192
423.1999999999999,0.0004719999999999
423.3999999999999,0.0012479999999999
423.6,-0.001372
423.7999999999999,-0.005297
424.0,-0.009559
424.1999999999999,-0.010023
424.3999999999999,-0.010299
424.6,-0.009776
424.7999999999999,-0.008594
425.0,-0.00781
425.1999999999999,-0.007525
425.3999999999999,-0.007818
425.6,-0.006975
425.7999999999999,-0.005354
426.0,-0.004451
426.1999999999999,-0.004786
426.3999999999999,-0.004682
426.6,-0.004393
426.7999999999999,-0.005239
427.0,-0.00674
427.1999999999999,-0.008643
427.3999999999999,-0.011166
427.6,-0.013202
427.7999999999999,-0.014279
428.0,-0.013536
428.1999999999999,-0.011689
428.3999999999999,-0.009509
428.6,-0.009198
428.7999999999999,-0.007347
429.0,-0.007078
429.1999999999999,-0.007861
429.3999999999999,-0.006889
429.6,-0.003847
429.7999999999999,-0.004004
430.0,-0.005309
430.1999999999999,-0.006317
430.3999999999999,-0.008465
430.6,-0.010524
430.7999999999999,-0.010406
431.0,-0.009163
431.1999999999999,-0.00906
431.3999999999999,-0.008498
431.6,-0.010123
431.7999999999999,-0.011874
432.0,-0.011988
432.1999999999999,-0.011277
432.3999999999999,-0.01119
432.6,-0.009961
432.7999999999999,-0.010475
433.0,-0.012035
433.1999999999999,-0.011678
433.3999999999999,-0.010791
433.6,-0.011611
433.7999999999999,-0.011672
434.0,-0.011221
434.1999999999999,-0.013262
434.3999999999999,-0.014244
434.6,-0.013375
434.7999999999999,-0.012706
435.0,-0.009398
435.1999999999999,-0.005958
435.3999999999999,-0.00479
435.6,-0.005333
435.7999999999999,-0.004914
436.0,-0.006254
436.1999999999999,-0.006587
436.3999999999999,-0.005904
436.6,-0.007398
436.7999999999999,-0.009144
437.0,-0.010715
437.1999999999999,-0.010799
437.3999999999999,-0.009823
437.6,-0.00445
437.7999999999999,-0.000195
438.0,0.0002649999999999
438.1999999999999,-0.001563
438.3999999999999,-0.003893
438.6,-0.0072
438.7999999999999,-0.008745
439.0,-0.007566
439.1999999999999,-0.006382
439.3999999999999,-0.00561
439.6,-0.00698
439.7999999999999,-0.010005
440.0,-0.013396
440.1999999999999,-0.014699
440.3999999999999,-0.015767
440.6,-0.014302
440.7999999999999,-0.011972
441.0,-0.009708
441.1999999999999,-0.009381
441.3999999999999,-0.008853
441.6,-0.010091
441.7999999999999,-0.010889
442.0,-0.009627
442.1999999999999,-0.007289
442.3999999999999,-0.005896
442.6,-0.002613
442.7999999999999,-0.000854
443.0,-0.001927
443.1999999999999,-0.00543
443.3999999999999,-0.008313
443.6,-0.010067
443.7999999999999,-0.010493
444.0,-0.011785
444.1999999999999,-0.010382
444.3999999999999,-0.007665
444.6,-0.007586
444.7999999999999,-0.007091
445.0,-0.004987
445.1999999999999,-0.005052
445.3999999999999,-0.00789
445.6,-0.007126
445.7999999999999,-0.007535
446.0,-0.006064
446.1999999999999,-0.002605
446.3999999999999,0.0006759999999999
446.6,-0.001697
446.7999999999999,-0.003869
447.0,-0.007099
447.1999999999999,-0.010961
447.3999999999999,-0.011644
447.6,-0.008399
447.7999999999999,-0.005383
448.0,-0.005799
448.1999999999999,-0.004527
448.3999999999999,-0.006013
448.6,-0.006793
448.7999999999999,-0.007406
449.0,-0.006656
449.1999999999999,-0.007389
449.3999999999999,-0.006479
449.6,-0.006064
449.7999999999999,-0.006769
450.0,-0.00531
450.1999999999999,-0.005043
450.3999999999999,-0.006204
450.6,-0.008026
450.7999999999999,-0.007987
451.0,-0.007721
451.1999999999999,-0.005919
451.3999999999999,-0.005524
451.6,-0.006291
451.7999999999999,-0.006272
452.0,-0.006477
452.1999999999999,-0.007042
452.3999999999999,-0.005263
452.6,-0.002858
452.7999999999999,-0.002084
453.0,-0.001636
453.1999999999999,-0.00155
453.3999999999999,-0.003267
453.6,-0.005465
453.7999999999999,-0.006218
454.0,-0.007562
454.1999999999999,-0.008025
454.3999999999999,-0.005522
454.6,-0.004764
454.7999999999999,-0.005583
455.0,-0.006163
455.1999999999999,-0.006089
455.3999999999999,-0.007525
455.6,-0.006571
455.7999999999999,-0.004848
456.0,-0.004133
456.1999999999999,-0.005161
456.3999999999999,-0.007124
456.6,-0.008815
456.7999999999999,-0.011813
457.0,-0.014483
457.1999999999999,-0.017516
457.3999999999999,-0.018489
457.6,-0.018958
457.7999999999999,-0.017834
458.0,-0.015389
458.1999999999999,-0.012581
458.3999999999999,-0.009422
458.6,-0.008487
458.7999999999999,-0.006322
459.0,-0.006453
459.1999999999999,-0.006005
459.3999999999999,-0.008272
459.6,-0.009896
459.7999999999999,-0.013047
460.0,-0.012995
460.1999999999999,-0.013433
460.3999999999999,-0.012561
460.6,-0.011492
460.7999999999999,-0.009721
461.0,-0.010212
461.1999999999999,-0.008825
461.3999999999999,-0.006655
461.6,-0.003342
461.7999999999999,-0.002011
462.0,-0.000922
462.1999999999999,-0.001552
462.3999999999999,-0.004246
462.6,-0.007503
462.7999999999999,-0.010604
463.0,-0.012815
463.1999999999999,-0.014826
463.3999999999999,-0.016003
463.6,-0.016276
463.7999999999999,-0.014656
464.0,-0.013204
464.1999999999999,-0.011118
464.3999999999999,-0.009339
464.6,-0.008114
464.7999999999999,-0.00764
465.0,-0.006963
465.1999999999999,-0.006914
465.3999999999999,-0.006244
465.6,-0.006886
465.7999999999999,-0.008218
466.0,-0.010361
466.1999999999999,-0.012586
466.3999999999999,-0.014607
466.6,-0.014233
466.7999999999999,-0.013329
467.0,-0.010892
467.1999999999999,-0.009415
467.3999999999999,-0.006076
467.6,-0.005417
467.7999999999999,-0.005791
468.0,-0.006913
468.1999999999999,-0.005594
468.3999999999999,-0.006078
468.6,-0.005183
468.7999999999999,-0.003468
469.0,-0.003545
469.1999999999999,-0.00548
469.3999999999999,-0.008041
469.6,-0.009852
469.7999999999999,-0.009551
470.0,-0.008169
470.1999999999999,-0.007715
470.3999999999999,-0.007868
470.6,-0.008843
470.7999999999999,-0.012479
471.0,-0.015427
471.1999999999999,-0.017094
471.3999999999999,-0.017217
471.6,-0.014766
471.7999999999999,-0.01104
472.0,-0.00789
472.1999999999999,-0.004025
472.3999999999999,-0.000363
472.6,0.0007899999999999
472.7999999999999,0.0008919999999999
473.0,0.0012649999999999
473.1999999999999,0.0002529999999999
473.3999999999999,-0.000808
473.6,-0.002233
473.7999999999999,-0.005213
474.0,-0.007845
474.1999999999999,-0.008939
474.3999999999999,-0.009742
474.6,-0.010265
474.7999999999999,-0.007566
475.0,-0.004862
475.1999999999999,-0.003193
475.3999999999999,-0.000891
475.6,-0.000792
475.7999999999999,-0.001294
476.0,-0.001226
476.1999999999999,-0.002796
476.3999999999999,-0.006408
476.6,-0.009035
476.7999999999999,-0.011536
477.0,-0.014805
477.1999999999999,-0.015808
477.3999999999999,-0.015348
477.6,-0.01377
477.7999999999999,-0.01263
478.0,-0.010529
478.1999999999999,-0.009115
478.3999999999999,-0.006893
478.6,-0.003375
478.7999999999999,0.0003779999999999
479.0,0.0023949999999999
479.1999999999999,0.0032889999999999
479.3999999999999,0.0021899999999999
479.6,-0.002043
479.7999999999999,-0.005756
480.0,-0.006915
480.1999999999999,-0.006467
480.3999999999999,-0.006162
480.6,-0.004818
480.7999999999999,-0.004842
481.0,-0.006254
481.1999999999999,-0.007759
481.3999999999999,-0.007476
481.6,-0.007666
481.7999999999999,-0.008167
482.0,-0.007482
482.1999999999999,-0.005795
482.3999999999999,-0.00526
482.6,-0.007183
482.7999999999999,-0.00809
483.0,-0.008791
483.1999999999999,-0.009353
483.3999999999999,-0.010308
483.6,-0.009011
483.7999999999999,-0.009141
484.0,-0.010045
484.1999999999999,-0.012544
484.3999999999999,-0.014289
484.6,-0.014936
484.7999999999999,-0.015086
485.0,-0.015361
485.1999999999999,-0.015674
485.3999999999999,-0.015507
485.6,-0.01473
485.7999999999999,-0.012025
486.0,-0.009044
486.1999999999999,-0.006498
486.3999999999999,-0.006797
486.6,-0.005654
486.7999999999999,-0.005458
487.0,-0.007802
487.1999999999999,-0.008044
487.3999999999999,-0.006798
487.6,-0.008531
487.7999999999999,-0.009978
488.0,-0.010478
488.1999999999999,-0.012074
488.3999999999999,-0.013158
488.6,-0.012074
488.7999999999999,-0.012732
489.0,-0.010956
489.1999999999999,-0.007703
489.3999999999999,-0.004933
489.6,-0.003137
489.7999999999999,-0.001105
490.0,-0.000977
490.1999999999999,-0.002286
490.3999999999999,-0.002224
490.6,-0.002917
490.7999999999999,-0.003067
491.0,-0.00324
491.1999999999999,-0.003586
491.3999999999999,-0.006508
491.6,-0.006717
491.7999999999999,-0.008252
492.0,-0.009212
492.1999999999999,-0.009984
492.3999999999999,-0.009317
492.6,-0.011818
492.7999999999999,-0.009875
493.0,-0.009018
493.1999999999999,-0.007647
493.3999999999999,-0.006865
493.6,-0.003279
493.7999999999999,-0.002361
494.0,-0.001075
494.1999999999999,-0.0024
494.3999999999999,-0.003461
494.6,-0.004957
494.7999999999999,-0.005432
495.0,-0.004744
495.1999999999999,-0.004306
495.3999999999999,-0.003475
495.6,-0.004873
495.7999999999999,-0.007276
496.0,-0.009894
496.1999999999999,-0.011475
496.3999999999999,-0.013712
496.6,-0.013174
496.7999999999999,-0.013863
497.0,-0.016154
497.1999999999999,-0.015915
497.3999999999999,-0.013532
497.6,-0.014757
497.7999999999999,-0.014757
498.0,-0.014005
498.1999999999999,-0.012725
498.3999999999999,-0.01175
498.6,-0.008471
498.7999999999999,-0.007662
499.0,-0.006333
499.1999999999999,-0.00655
499.3999999999999,-0.007179
499.6,-0.008016
499.7999999999999,-0.007088
500.0,-0.007197
500.1999999999999,-0.009141
500.3999999999999,-0.009416
500.6,-0.009357
500.7999999999999,-0.006766
501.0,-0.004251
501.1999999999999,-0.003808
501.3999999999999,-0.006479
501.6,-0.009058
501.7999999999999,-0.014184
502.0,-0.01872
502.1999999999999,-0.018456
502.3999999999999,-0.01623
502.6,-0.015428
502.7999999999999,-0.01347
503.0,-0.012263
503.1999999999999,-0.011654
503.3999999999999,-0.010965
503.6,-0.010893
503.7999999999999,-0.012127
504.0,-0.012524
504.1999999999999,-0.014827
504.3999999999999,-0.018036
504.6,-0.01898
504.7999999999999,-0.017242
505.0,-0.016543
505.1999999999999,-0.014926
505.3999999999999,-0.012966
505.6,-0.011758
505.7999999999999,-0.012198
506.0,-0.010611
506.1999999999999,-0.010747
506.3999999999999,-0.010844
506.6,-0.01068
506.7999999999999,-0.010218
507.0,-0.01143
507.1999999999999,-0.010295
507.3999999999999,-0.009676
507.6,-0.007669
507.7999999999999,-0.006573
508.0,-0.004586
508.1999999999999,-0.003733
508.3999999999999,-0.002427
508.6,-0.003186
508.7999999999999,-0.003934
509.0,-0.003576
509.1999999999999,-0.00503
509.3999999999999,-0.007381
509.6,-0.007675
509.7999999999999,-0.005295
510.0,-0.006798
510.1999999999999,-0.004894
510.3999999999999,-0.003654
510.6,-0.003439
510.7999999999999,-0.004458
511.0,-0.003691
511.1999999999998,-0.005849
511.3999999999999,-0.005155
511.5999999999999,-0.003438
511.8,-0.004552
512.0,-0.004575
512.1999999999998,-0.004319
512.3999999999999,-0.004017
512.5999999999999,-0.006544
512.8,-0.006492
513.0,-0.006386
513.1999999999998,-0.005787
513.3999999999999,-0.006583
513.5999999999999,-0.006668
513.8,-0.007607
514.0,-0.008023
514.1999999999998,-0.007895
514.3999999999999,-0.008909
514.5999999999999,-0.010048
514.8,-0.012646
515.0,-0.015944
515.1999999999998,-0.016085
515.3999999999999,-0.01579
515.5999999999999,-0.014069
515.8,-0.011677
516.0,-0.010118
516.1999999999998,-0.011952
516.3999999999999,-0.011777
516.5999999999999,-0.012582
516.8,-0.011464
517.0,-0.007145
517.1999999999998,-0.002229
517.3999999999999,-0.000513
517.5999999999999,-0.000434
517.8,-2.300000000005076e-05
518.0,-0.004637
518.1999999999998,-0.009078
518.3999999999999,-0.01097
518.5999999999999,-0.011758
518.8,-0.014263
519.0,-0.013442
519.1999999999998,-0.012797
519.3999999999999,-0.014124
519.5999999999999,-0.015605
519.8,-0.01674
520.0,-0.016939
520.1999999999998,-0.014498
520.3999999999999,-0.011005
520.5999999999999,-0.006929
520.8,-0.003076
521.0,-0.002974
521.1999999999998,-0.006371
521.3999999999999,-0.009309
521.5999999999999,-0.011124
521.8,-0.012754
522.0,-0.011766
522.1999999999998,-0.00914
522.3999999999999,-0.00852
522.5999999999999,-0.009732
522.8,-0.009431
523.0,-0.008926
523.1999999999998,-0.00848
523.3999999999999,-0.006527
523.5999999999999,-0.005111
523.8,-0.005086
524.0,-0.006063
524.1999999999998,-0.007834
524.3999999999999,-0.010061
524.5999999999999,-0.010272
524.8,-0.008913
525.0,-0.009582
525.1999999999998,-0.008923
525.3999999999999,-0.006785
525.5999999999999,-0.004128
525.8,-0.002692
526.0,-0.00093
526.1999999999998,-0.001127
526.3999999999999,-0.002397
526.5999999999999,-0.004407
526.8,-0.009206
527.0,-0.011901
527.1999999999998,-0.014529
527.3999999999999,-0.016784
527.5999999999999,-0.01838
527.8,-0.015975
528.0,-0.013757
528.1999999999998,-0.01103
528.3999999999999,-0.008569
528.5999999999999,-0.007305
528.8,-0.00783
529.0,-0.007682
529.1999999999998,-0.008477
529.3999999999999,-0.009738
529.5999999999999,-0.009546
529.8,-0.010245
530.0,-0.01124
530.1999999999998,-0.010274
530.3999999999999,-0.010516
530.5999999999999,-0.011773
530.8,-0.010356
531.0,-0.009479
531.1999999999998,-0.010374
531.3999999999999,-0.009162
531.5999999999999,-0.008631
531.8,-0.009377
532.0,-0.009353
532.1999999999998,-0.008785
532.3999999999999,-0.007973
532.5999999999999,-0.007634
532.8,-0.00806
533.0,-0.009814
533.1999999999998,-0.010705
533.3999999999999,-0.013799
533.5999999999999,-0.016854
533.8,-0.019875
534.0,-0.021027
534.1999999999998,-0.020696
534.3999999999999,-0.018842
534.5999999999999,-0.017055
534.8,-0.015147
535.0,-0.013361
535.1999999999998,-0.011876
535.3999999999999,-0.012736
535.5999999999999,-0.012918
535.8,-0.014418
536.0,-0.015323
536.1999999999998,-0.017515
536.3999999999999,-0.016739
536.5999999999999,-0.016659
536.8,-0.014571
537.0,-0.011482
537.1999999999998,-0.00979
537.3999999999999,-0.010044
537.5999999999999,-0.007623
537.8,-0.005792
538.0,-0.007918
538.1999999999998,-0.008565
538.3999999999999,-0.009529
538.5999999999999,-0.011717
538.8,-0.012829
539.0,-0.011444
539.1999999999998,-0.010898
539.3999999999999,-0.008475
539.5999999999999,-0.008151
539.8,-0.008889
540.0,-0.011178
540.1999999999998,-0.011332
540.3999999999999,-0.012583
540.5999999999999,-0.012463
540.8,-0.011658
541.0,-0.011374
541.1999999999998,-0.01267
541.3999999999999,-0.010584
541.5999999999999,-0.008987
541.8,-0.010466
542.0,-0.009833
542.1999999999998,-0.009106
542.3999999999999,-0.011936
542.5999999999999,-0.012619
542.8,-0.011529
543.0,-0.01219
543.1999999999998,-0.012404
543.3999999999999,-0.012675
543.5999999999999,-0.013457
543.8,-0.01217
544.0,-0.010628
544.1999999999998,-0.011131
544.3999999999999,-0.009295
544.5999999999999,-0.008702
544.8,-0.011142
545.0,-0.011852
545.1999999999998,-0.010371
545.3999999999999,-0.008902
545.5999999999999,-0.00616
545.8,-0.002011
546.0,-0.00162
546.1999999999998,-0.001766
546.3999999999999,-0.002807
546.5999999999999,-0.004712
546.8,-0.007215
547.0,-0.007866
547.1999999999998,-0.006478
547.3999999999999,-0.005916
547.5999999999999,-0.005599
547.8,-0.006274
548.0,-0.005231
548.1999999999998,-0.007443
548.3999999999999,-0.00831
548.5999999999999,-0.008819
548.8,-0.008148
549.0,-0.009375
549.1999999999998,-0.007715
549.3999999999999,-0.008547
549.5999999999999,-0.00937
549.8,-0.009843
550.0,-0.009692
550.1999999999998,-0.010634
550.3999999999999,-0.010775
550.5999999999999,-0.011263
550.8,-0.010899
551.0,-0.010721
551.1999999999998,-0.012302
551.3999999999999,-0.012258
551.5999999999999,-0.010933
551.8,-0.010523
552.0,-0.010094
552.1999999999998,-0.011033
552.3999999999999,-0.014163
552.5999999999999,-0.01639
552.8,-0.017333
553.0,-0.018094
553.1999999999998,-0.016818
553.3999999999999,-0.013495
553.5999999999999,-0.012809
553.8,-0.010987
554.0,-0.010815
554.1999999999998,-0.010195
554.3999999999999,-0.009792
554.5999999999999,-0.008137
554.8,-0.009261
555.0,-0.008851
555.1999999999998,-0.009073
555.3999999999999,-0.009045
555.5999999999999,-0.009942
555.8,-0.008125
556.0,-0.006052
556.1999999999998,-0.003584
556.3999999999999,-0.003452
556.5999999999999,-0.004067
556.8,-0.005197
557.0,-0.006751
557.1999999999998,-0.009099
557.3999999999999,-0.011766
557.5999999999999,-0.012623
557.8,-0.014506
558.0,-0.015678
558.1999999999998,-0.013573
558.3999999999999,-0.009282
558.5999999999999,-0.007299
558.8,-0.006776
559.0,-0.006507
559.1999999999998,-0.009435
559.3999999999999,-0.012213
559.5999999999999,-0.013581
559.8,-0.01427
560.0,-0.01525
560.1999999999998,-0.015327
560.3999999999999,-0.015604
560.5999999999999,-0.015612
560.8,-0.014417
561.0,-0.013609
561.1999999999998,-0.012058
561.3999999999999,-0.012865
561.5999999999999,-0.013365
561.8,-0.012656
562.0,-0.010894
562.1999999999998,-0.011442
562.3999999999999,-0.010858
562.5999999999999,-0.00986
562.8,-0.010137
563.0,-0.010944
563.1999999999998,-0.009392
563.3999999999999,-0.007553
563.5999999999999,-0.006173
563.8,-0.002753
564.0,0.0001029999999999
564.1999999999998,0.0003389999999999
564.3999999999999,0.0002909999999999
564.5999999999999,-0.002762
564.8,-0.006893
565.0,-0.00873
565.1999999999998,-0.009111
565.3999999999999,-0.010223
565.5999999999999,-0.008227
565.8,-0.008113
566.0,-0.008968
566.1999999999998,-0.009247
566.3999999999999,-0.0061
566.5999999999999,-0.003922
566.8,-0.001464
567.0,-0.002514
567.1999999999998,-0.002909
567.3999999999999,-0.005742
567.5999999999999,-0.007236
567.8,-0.01089
568.0,-0.008731
568.1999999999998,-0.00828
568.3999999999999,-0.007983
568.5999999999999,-0.010317
568.8,-0.01042
569.0,-0.012379
569.1999999999998,-0.012094
569.3999999999999,-0.009788
569.5999999999999,-0.006591
569.8,-0.004941
570.0,-0.003409
570.1999999999998,-0.005105
570.3999999999999,-0.009491
570.5999999999999,-0.012881
570.8,-0.014217
571.0,-0.016858
571.1999999999998,-0.016378
571.3999999999999,-0.013931
571.5999999999999,-0.012442
571.8,-0.01049
572.0,-0.008843
572.1999999999998,-0.00777
572.3999999999999,-0.007743
572.5999999999999,-0.008204
572.8,-0.009593
572.9999999999998,-0.009776
573.1999999999998,-0.010899
573.3999999999999,-0.011425
573.5999999999999,-0.011002
573.8,-0.010293
573.9999999999998,-0.009673
574.1999999999998,-0.010525
574.3999999999999,-0.009889
574.5999999999999,-0.008664
574.8,-0.007113
574.9999999999998,-0.005728
575.1999999999998,-0.004245
575.3999999999999,-0.004117
575.5999999999999,-0.003865
575.8,-0.004597
575.9999999999998,-0.008228
576.1999999999998,-0.009606
576.3999999999999,-0.010129
576.5999999999999,-0.010817
576.8,-0.01234
576.9999999999998,-0.011071
577.1999999999998,-0.009454
577.3999999999999,-0.008684
577.5999999999999,-0.009066
577.8,-0.008871
577.9999999999998,-0.006914
578.1999999999998,-0.005029
578.3999999999999,-0.003601
578.5999999999999,-0.003043
578.8,-0.003762
578.9999999999998,-0.006599
579.1999999999998,-0.009204
579.3999999999999,-0.011138
579.5999999999999,-0.01326
579.8,-0.012675
579.9999999999998,-0.01117
580.1999999999998,-0.010781
580.3999999999999,-0.012661
580.5999999999999,-0.012002
580.8,-0.012179
580.9999999999998,-0.011657
581.1999999999998,-0.010965
581.3999999999999,-0.008939
581.5999999999999,-0.008861
581.8,-0.008453
581.9999999999998,-0.008675
582.1999999999998,-0.008521
582.3999999999999,-0.007662
582.5999999999999,-0.005475
582.8,-0.002654
582.9999999999998,-0.000191
583.1999999999998,-0.000443
583.3999999999999,-0.001226
583.5999999999999,-0.002427
583.8,-0.005253
583.9999999999998,-0.010434
584.1999999999998,-0.014773
584.3999999999999,-0.016319
584.5999999999999,-0.016112
584.8,-0.013902
584.9999999999998,-0.010884
585.1999999999998,-0.006699
585.3999999999999,-0.005531
585.5999999999999,-0.005183
585.8,-0.006695
585.9999999999998,-0.006931
586.1999999999998,-0.008879
586.3999999999999,-0.010506
586.5999999999999,-0.012749
586.8,-0.014688
586.9999999999998,-0.016318
587.1999999999998,-0.01481
587.3999999999999,-0.013697
587.5999999999999,-0.012258
587.8,-0.01158
587.9999999999998,-0.009161
588.1999999999998,-0.009109
588.3999999999999,-0.007651
588.5999999999999,-0.00566
588.8,-0.004257
588.9999999999998,-0.004724
589.1999999999998,-0.003259
589.3999999999999,-0.0029
589.5999999999999,-0.003904
589.8,-0.004423
589.9999999999998,-0.005108
590.1999999999998,-0.007926
590.3999999999999,-0.00988
590.5999999999999,-0.010341
590.8,-0.010108
590.9999999999998,-0.010485
591.1999999999998,-0.009019
591.3999999999999,-0.009153
591.5999999999999,-0.010095
591.8,-0.010069
591.9999999999998,-0.009841
592.1999999999998,-0.011073
592.3999999999999,-0.010628
592.5999999999999,-0.009565
592.8,-0.007495
592.9999999999998,-0.005933
593.1999999999998,-0.003874
593.3999999999999,-0.004373
593.5999999999999,-0.004312
593.8,-0.006083
593.9999999999998,-0.006608
594.1999999999998,-0.006204
594.3999999999999,-0.00527
594.5999999999999,-0.006035
594.8,-0.004908
594.9999999999998,-0.006471
595.1999999999998,-0.0088
595.3999999999999,-0.010513
595.5999999999999,-0.01291
595.8,-0.017726
595.9999999999998,-0.016468
596.1999999999998,-0.014734
596.3999999999999,-0.012882
596.5999999999999,-0.011003
596.8,-0.005826
596.9999999999998,-0.005972
597.1999999999998,-0.006479
597.3999999999999,-0.007551
597.5999999999999,-0.007709
597.8,-0.009563
597.9999999999998,-0.009164
598.1999999999998,-0.008208
