Time (s),Shift (nm)
0.0,0.0
0.1999999999999886,0.000939
0.4000000000000341,0.0017369999999998
0.6000000000000227,0.0037279999999999
0.8000000000000114,0.0048649999999998
1.0,0.005927
1.1999999999999886,0.0101839999999999
1.400000000000034,0.014113
1.6000000000000227,0.015684
1.8000000000000114,0.0145409999999999
2.0,0.013409
2.1999999999999886,0.011109
2.400000000000034,0.008377
2.6000000000000227,0.005362
2.800000000000012,0.0045249999999998
3.0,0.006645
3.1999999999999886,0.0090189999999998
3.400000000000034,0.0115199999999999
3.6000000000000227,0.013821
3.8000000000000114,0.0150189999999998
4.0,0.016197
4.199999999999989,0.016359
4.400000000000034,0.0166379999999999
4.600000000000023,0.017138
4.800000000000011,0.018423
5.0,0.0175589999999998
5.199999999999989,0.0154589999999998
5.400000000000034,0.0132939999999999
5.600000000000023,0.011128
5.800000000000011,0.0106949999999998
6.0,0.0083739999999998
6.199999999999989,0.0084189999999999
6.400000000000034,0.0088189999999999
6.600000000000023,0.011649
6.800000000000011,0.0120219999999999
7.0,0.0128019999999999
7.199999999999989,0.0127919999999999
7.400000000000034,0.01211
7.600000000000023,0.0118679999999999
7.800000000000011,0.0115089999999999
8.0,0.012024
8.199999999999989,0.0123889999999999
8.400000000000034,0.014431
8.600000000000023,0.0128179999999999
8.800000000000011,0.0103729999999999
9.0,0.0085669999999999
9.199999999999989,0.0078489999999999
9.400000000000034,0.006968
9.600000000000025,0.008102
9.800000000000011,0.0112149999999999
10.0,0.0137979999999999
10.199999999999989,0.0148649999999999
10.400000000000034,0.0141469999999999
10.600000000000025,0.0128719999999999
10.800000000000011,0.01197
11.0,0.011022
11.199999999999989,0.0084859999999999
11.400000000000034,0.0072209999999999
11.600000000000025,0.0058879999999998
11.800000000000011,0.005346
12.0,0.002596
12.199999999999989,0.000607
12.400000000000034,-0.00136
12.600000000000025,-0.003732
12.800000000000011,-0.007471
13.0,-0.0069969999999999
13.199999999999989,-0.0031620000000001
13.400000000000034,0.0023569999999999
13.600000000000025,0.008312
13.800000000000011,0.014669
14.0,0.0181309999999998
14.199999999999989,0.0179339999999998
14.400000000000034,0.015171
14.600000000000025,0.0146999999999999
14.800000000000011,0.013003
15.0,0.0128319999999999
15.199999999999989,0.013975
15.400000000000034,0.016208
15.600000000000025,0.0161489999999999
15.800000000000011,0.0168019999999999
16.0,0.01692
16.19999999999999,0.0163659999999998
16.400000000000034,0.0174929999999999
16.600000000000023,0.01739
16.80000000000001,0.0170019999999999
17.0,0.015646
17.19999999999999,0.014577
17.400000000000034,0.011641
17.600000000000023,0.010825
17.80000000000001,0.0100119999999999
18.0,0.0096
18.19999999999999,0.0107429999999999
18.400000000000038,0.0115469999999999
18.600000000000023,0.0103759999999999
18.80000000000001,0.0087889999999999
19.0,0.0069969999999999
19.19999999999999,0.0046059999999998
19.400000000000038,0.001287
19.600000000000023,0.0005789999999998
19.80000000000001,0.0032739999999999
20.0,0.0074899999999999
20.19999999999999,0.0092319999999999
20.400000000000038,0.011257
20.600000000000023,0.0140299999999999
20.80000000000001,0.015973
21.0,0.0148139999999998
21.19999999999999,0.0143619999999999
21.400000000000038,0.016515
21.600000000000023,0.017328
21.80000000000001,0.012952
22.0,0.009681
22.19999999999999,0.008434
22.400000000000038,0.00784
22.600000000000023,0.007686
22.80000000000001,0.0098279999999999
23.0,0.013104
23.19999999999999,0.0152639999999999
23.400000000000038,0.0137519999999999
23.600000000000023,0.011217
23.80000000000001,0.0088219999999998
24.0,0.008423
24.19999999999999,0.0078819999999999
24.400000000000038,0.0081739999999999
24.600000000000023,0.006974
24.80000000000001,0.0073199999999999
25.0,0.007004
25.19999999999999,0.00791
25.400000000000038,0.008412
25.600000000000023,0.009241
25.80000000000001,0.0085809999999999
26.0,0.0063919999999999
26.19999999999999,0.0035639999999999
26.400000000000038,0.0024349999999999
26.600000000000023,0.002094
26.80000000000001,0.0042119999999998
27.0,0.004483
27.19999999999999,0.0044169999999998
27.400000000000038,0.0025619999999999
27.600000000000023,0.0022199999999998
27.80000000000001,0.0023459999999999
28.0,0.00472
28.19999999999999,0.006099
28.400000000000038,0.007522
28.600000000000023,0.0068839999999998
28.80000000000001,0.00499
29.0,0.001082
29.19999999999999,-0.0014259999999999
29.400000000000038,-0.0024999999999999
29.600000000000023,-0.004169
29.80000000000001,-0.005033
30.0,-0.001929
30.19999999999999,0.003525
30.400000000000038,0.007965
30.600000000000023,0.011864
30.80000000000001,0.01214
31.0,0.0102189999999999
31.19999999999999,0.0062949999999999
31.400000000000038,0.0013239999999998
31.600000000000023,-0.0015849999999999
31.80000000000001,-0.000383
32.0,0.0041139999999999
32.19999999999999,0.007832
32.400000000000034,0.0119709999999999
32.60000000000002,0.0153579999999999
32.80000000000001,0.016315
33.0,0.0126619999999999
33.19999999999999,0.0077689999999999
33.400000000000034,0.004366
33.60000000000002,0.0023509999999999
33.80000000000001,0.00312
34.0,0.007217
34.19999999999999,0.0111499999999999
34.400000000000034,0.0136119999999999
34.60000000000002,0.0129559999999999
34.80000000000001,0.010318
35.0,0.007303
35.19999999999999,0.0046809999999999
35.400000000000034,0.004048
35.60000000000002,0.0072659999999999
35.80000000000001,0.009959
36.0,0.010955
36.19999999999999,0.012375
36.400000000000034,0.0116659999999999
36.60000000000002,0.00889
36.80000000000001,0.0062619999999999
37.0,0.006742
37.19999999999999,0.0054849999999999
37.400000000000034,0.0043269999999999
37.60000000000002,0.0049349999999999
37.80000000000001,0.00621
38.0,0.0046889999999999
38.19999999999999,0.006404
38.400000000000034,0.010323
38.60000000000002,0.013233
38.80000000000001,0.0144949999999999
39.0,0.0142809999999999
39.19999999999999,0.014367
39.400000000000034,0.013463
39.60000000000002,0.010928
39.80000000000001,0.008199
40.0,0.0078719999999998
40.19999999999999,0.008742
40.400000000000034,0.0073209999999999
40.60000000000002,0.007222
40.80000000000001,0.0077059999999999
41.0,0.0078929999999999
41.19999999999999,0.0063789999999999
41.400000000000034,0.0057309999999999
41.60000000000002,0.006124
41.80000000000001,0.0080309999999999
42.0,0.0082659999999998
42.19999999999999,0.0066429999999999
42.400000000000034,0.007438
42.60000000000002,0.007338
42.80000000000001,0.008035
43.0,0.008027
43.19999999999999,0.007837
43.400000000000034,0.0056899999999999
43.60000000000002,0.0033719999999999
43.80000000000001,0.0017739999999999
44.0,0.0030699999999999
44.19999999999999,0.0062709999999999
44.400000000000034,0.0094289999999999
44.60000000000002,0.0117789999999999
44.80000000000001,0.012725
45.0,0.011695
45.19999999999999,0.0104979999999998
45.400000000000034,0.0092039999999999
45.60000000000002,0.010202
45.80000000000001,0.0115309999999999
46.0,0.0125089999999998
46.19999999999999,0.0137119999999999
46.400000000000034,0.0143969999999999
46.60000000000002,0.0145319999999999
46.80000000000001,0.012045
47.0,0.0114769999999999
47.19999999999999,0.0105759999999999
47.400000000000034,0.0101249999999999
47.60000000000002,0.00862
47.80000000000001,0.006196
48.0,0.0025789999999998
48.19999999999999,0.0001029999999999
48.400000000000034,-0.0025919999999999
48.60000000000002,-0.0042740000000001
48.80000000000001,-0.0036149999999999
49.0,-0.0023949999999999
49.19999999999999,0.0002809999999999
49.400000000000034,0.0049109999999998
49.60000000000002,0.009279
49.80000000000001,0.011479
50.0,0.0135099999999999
50.19999999999999,0.0126379999999999
50.400000000000034,0.0117819999999999
50.60000000000002,0.0105779999999999
50.80000000000001,0.012626
51.0,0.013076
51.19999999999999,0.011524
51.400000000000034,0.0086669999999999
51.60000000000002,0.004834
51.80000000000001,-0.0007649999999999
52.0,-0.003489
52.19999999999999,-0.001289
52.400000000000034,0.0010069999999999
52.60000000000002,0.005659
52.80000000000001,0.0101119999999998
53.0,0.014766
53.19999999999999,0.01407
53.400000000000034,0.012601
53.60000000000002,0.007962
53.80000000000001,0.0055179999999999
54.0,0.0012309999999999
54.19999999999999,0.0015769999999999
54.400000000000034,0.0036359999999999
54.60000000000002,0.007552
54.80000000000001,0.0096519999999999
55.0,0.0126329999999998
55.19999999999999,0.013138
55.400000000000034,0.0141919999999999
55.60000000000002,0.014358
55.80000000000001,0.0134309999999999
56.0,0.0086159999999999
56.19999999999999,0.004672
56.400000000000034,0.0012209999999999
56.60000000000002,-0.000329
56.80000000000001,0.000302
57.0,0.0030769999999999
57.19999999999999,0.0029129999999999
57.400000000000034,0.0006409999999998
57.60000000000002,-0.001754
57.80000000000001,-0.004364
58.00000000000006,-0.003568
58.19999999999999,-0.000723
58.400000000000034,0.0009049999999999
58.599999999999966,-0.001084
58.80000000000001,-0.0031810000000001
59.00000000000006,-0.005209
59.19999999999999,-0.005268
59.400000000000034,-0.003373
59.599999999999966,0.000555
59.80000000000001,0.0044299999999999
60.00000000000006,0.00703
60.19999999999999,0.006339
60.400000000000034,0.0036579999999999
60.599999999999966,0.002123
60.80000000000001,0.0013749999999999
61.00000000000006,7.399999999990747e-05
61.19999999999999,-0.001581
61.400000000000034,0.0001619999999999
61.599999999999966,0.000658
61.80000000000001,0.000278
62.00000000000006,-0.0013639999999999
62.19999999999999,8.60000000000305e-05
62.400000000000034,0.00099
62.599999999999966,0.005481
62.80000000000001,0.0072309999999999
63.00000000000006,0.010944
63.19999999999999,0.0124439999999999
63.400000000000034,0.0125379999999999
63.599999999999966,0.010148
63.80000000000001,0.0108349999999999
64.00000000000006,0.0109509999999999
64.19999999999999,0.0124059999999999
64.40000000000003,0.0125399999999999
64.59999999999997,0.0128559999999999
64.80000000000001,0.0117089999999999
65.00000000000006,0.0106059999999998
65.19999999999999,0.0092149999999999
65.40000000000003,0.0092399999999999
65.59999999999997,0.0068859999999999
65.80000000000001,0.0055689999999999
66.00000000000006,0.005729
66.19999999999999,0.006763
66.40000000000003,0.0069799999999999
66.59999999999997,0.007635
66.80000000000001,0.008053
67.00000000000006,0.0056009999999999
67.19999999999999,0.002167
67.40000000000003,0.0002869999999999
67.59999999999997,-0.001114
67.80000000000001,-0.0020679999999999
68.00000000000006,-0.002445
68.19999999999999,-0.0019949999999999
68.40000000000003,-0.001908
68.59999999999997,-0.000412
68.80000000000001,8.099999999999774e-05
69.00000000000006,-0.000143
69.19999999999999,0.000401
69.40000000000003,-7.599999999996498e-05
69.59999999999997,-0.001919
69.80000000000001,-0.0033719999999999
70.00000000000006,-0.0004349999999999
70.19999999999999,0.0008539999999999
70.40000000000003,0.0013529999999999
70.59999999999997,0.00245
70.80000000000001,0.0053939999999998
71.00000000000006,0.0059569999999999
71.19999999999999,0.0064999999999999
71.40000000000003,0.009444
71.59999999999997,0.011025
71.80000000000001,0.0087509999999999
72.00000000000006,0.0071609999999999
72.19999999999999,0.0072859999999999
72.40000000000003,0.0079149999999998
72.59999999999997,0.009994
72.80000000000001,0.0140789999999999
73.00000000000006,0.0155659999999999
73.19999999999999,0.0159519999999999
73.40000000000003,0.0126489999999999
73.59999999999997,0.009938
73.80000000000001,0.009003
74.00000000000006,0.0096879999999999
74.19999999999999,0.0089299999999998
74.40000000000003,0.009365
74.59999999999997,0.0093289999999999
74.80000000000001,0.009114
75.00000000000006,0.008348
75.19999999999999,0.0082109999999999
75.40000000000003,0.006969
75.59999999999997,0.0072659999999999
75.80000000000001,0.0062439999999999
76.00000000000006,0.0037789999999999
76.19999999999999,0.0028049999999999
76.40000000000003,0.0048589999999999
76.59999999999997,0.005832
76.80000000000001,0.006331
77.00000000000006,0.006108
77.19999999999999,0.0057679999999999
77.40000000000003,0.0062389999999998
77.59999999999997,0.0063219999999999
77.80000000000001,0.005727
78.00000000000006,0.0069319999999999
78.19999999999999,0.00804
78.40000000000003,0.009104
78.59999999999997,0.010305
78.80000000000001,0.0115559999999999
79.00000000000006,0.013608
79.19999999999999,0.0128759999999998
79.40000000000003,0.0091479999999999
79.59999999999997,0.0049529999999999
79.80000000000001,0.002793
80.00000000000006,-0.0007109999999999
80.19999999999999,-0.00458
80.40000000000003,-0.0066759999999999
80.59999999999997,-0.006072
80.80000000000001,-0.0044459999999999
81.00000000000006,-0.0032049999999999
81.19999999999999,-0.0015519999999999
81.40000000000003,0.0004269999999999
81.59999999999997,-0.0017739999999999
81.80000000000001,-0.0042409999999999
82.00000000000006,-0.004923
82.19999999999999,-0.004045
82.40000000000003,-0.0050779999999999
82.59999999999997,-0.0035119999999999
82.80000000000001,-0.002863
83.00000000000006,-0.0016469999999999
83.19999999999999,-0.0027639999999999
83.40000000000003,-0.003416
83.59999999999997,-0.003897
83.80000000000001,-0.003322
84.00000000000006,-0.0031209999999999
84.19999999999999,-0.0003329999999999
84.40000000000003,0.004661
84.59999999999997,0.008709
84.80000000000001,0.011379
85.00000000000006,0.012871
85.19999999999999,0.0122169999999999
85.40000000000003,0.009206
85.59999999999997,0.0069319999999999
85.80000000000001,0.006161
86.00000000000006,0.0063509999999999
86.19999999999999,0.0086139999999999
86.40000000000003,0.011684
86.59999999999997,0.0119759999999999
86.80000000000001,0.0081949999999999
87.00000000000006,0.002679
87.19999999999999,-0.0015560000000001
87.40000000000003,-0.0034689999999999
87.59999999999997,-0.0030859999999999
87.80000000000001,0.000499
88.00000000000006,0.0056609999999999
88.19999999999999,0.0101189999999999
88.40000000000003,0.0127839999999999
88.59999999999997,0.011676
88.80000000000001,0.0105079999999999
89.00000000000006,0.0086919999999999
89.19999999999999,0.0080899999999999
89.40000000000003,0.006121
89.59999999999997,0.006501
89.80000000000001,0.005695
90.00000000000006,0.0029379999999998
90.2,-7.700000000010476e-05
90.40000000000003,-0.0022349999999999
90.59999999999997,-0.0034019999999999
90.8,-0.00275
91.00000000000006,-0.001819
91.2,-0.001724
91.40000000000003,-0.0026619999999999
91.59999999999997,-0.001341
91.8,-0.000388
92.00000000000006,0.0028219999999998
92.2,0.003889
92.40000000000003,0.005417
92.59999999999997,0.004717
92.8,0.00201
93.00000000000006,-0.0002390000000001
93.2,-0.000896
93.40000000000003,-0.000591
93.59999999999997,-0.0002539999999999
93.8,0.0003699999999999
94.00000000000006,0.0019869999999999
94.2,0.0018659999999999
94.40000000000003,0.000771
94.59999999999997,0.0001599999999999
94.8,0.0021809999999999
95.00000000000006,0.000985
95.2,0.002885
95.40000000000003,0.003295
95.59999999999997,0.004261
95.8,0.0029889999999999
96.00000000000006,0.0041519999999999
96.2,0.004115
96.40000000000003,0.0052689999999999
96.59999999999997,0.003724
96.8,0.003025
97.00000000000006,0.001924
97.2,0.00238
97.40000000000003,0.0008569999999998
97.59999999999997,0.0023869999999999
97.8,0.002113
98.00000000000006,0.0034
98.2,0.0032039999999999
98.40000000000003,0.0059629999999999
98.59999999999997,0.006963
98.8,0.0087559999999999
99.00000000000006,0.0076339999999999
99.2,0.008575
99.40000000000003,0.0092719999999999
99.59999999999997,0.00956
99.8,0.011651
100.00000000000006,0.0112669999999999
100.2,0.007317
100.40000000000003,0.0033199999999999
100.59999999999997,0.0011909999999999
100.8,-0.002742
101.00000000000006,-0.0041999999999999
101.2,-0.0047859999999999
101.40000000000003,-0.0050460000000001
101.59999999999997,-0.0064429999999999
101.8,-0.0078139999999999
102.00000000000006,-0.008958
102.2,-0.0082489999999999
102.40000000000003,-0.0052039999999999
102.59999999999997,-0.001648
102.8,0.002218
103.00000000000006,0.0045539999999999
103.2,0.004655
103.40000000000003,0.0035519999999999
103.59999999999997,0.0028999999999999
103.8,0.0008799999999999
104.00000000000006,-0.0001379999999999
104.2,0.0002059999999999
104.40000000000003,-0.0011129999999999
104.59999999999997,-0.0019489999999999
104.8,0.000739
105.00000000000006,0.003133
105.2,0.004396
105.40000000000003,0.00661
105.59999999999997,0.00879
105.8,0.0069919999999998
106.00000000000006,0.007335
106.2,0.0063279999999998
106.40000000000003,0.00339
106.59999999999997,-0.0009339999999999
106.8,-0.00373
107.00000000000006,-0.006423
107.2,-0.005792
107.40000000000003,-0.0032639999999999
107.59999999999997,0.0012719999999999
107.8,0.0054099999999999
108.00000000000006,0.0076659999999999
108.2,0.0079869999999999
108.40000000000003,0.008043
108.59999999999997,0.0056879999999999
108.8,0.0044669999999999
109.00000000000006,0.002283
109.2,0.000199
109.40000000000003,-0.001443
109.59999999999997,-0.002045
109.8,-0.001913
110.00000000000006,-0.000258
110.2,0.001136
110.40000000000003,-0.0006079999999999
110.59999999999997,-0.002833
110.8,-0.0053099999999999
111.00000000000006,-0.0057640000000001
111.2,-0.007511
111.40000000000003,-0.006407
111.59999999999997,-0.0043489999999999
111.8,-0.0025049999999999
112.00000000000006,-0.0033819999999999
112.2,-0.001851
112.40000000000003,0.0005919999999999
112.59999999999997,0.0016419999999999
112.8,0.001479
113.00000000000006,0.0017249999999999
113.2,0.0034669999999998
113.40000000000003,0.0034939999999998
113.59999999999997,0.001864
113.8,0.000137
114.00000000000006,0.0012799999999999
114.2,-0.000815
114.40000000000003,-0.0013529999999999
114.59999999999997,0.0003349999999999
114.8,0.004267
115.00000000000006,0.004931
115.2,0.007166
115.40000000000003,0.0077879999999999
115.59999999999997,0.0079199999999999
115.8,0.005981
116.00000000000006,0.0060759999999999
116.2,0.005395
116.40000000000003,0.0062489999999999
116.59999999999997,0.0070699999999999
116.8,0.0082649999999999
117.00000000000006,0.0099629999999999
117.2,0.008642
117.40000000000003,0.0066569999999999
117.59999999999997,0.0058469999999999
117.8,0.006027
118.00000000000006,0.0025919999999999
118.2,0.0010639999999999
118.40000000000003,-0.0017469999999999
118.59999999999997,-0.0030369999999999
118.8,-0.0038249999999999
119.00000000000006,-0.0036879999999999
119.2,-0.0025839999999999
119.40000000000003,-0.0003429999999999
119.59999999999997,-0.001865
119.8,-0.003783
120.00000000000006,-0.0041379999999999
120.2,-0.000566
120.40000000000003,-0.0007129999999999
120.59999999999997,0.000957
120.8,-2.799999999991698e-05
121.00000000000006,-0.0031479999999999
121.2,-0.007417
121.40000000000003,-0.008483
121.59999999999997,-0.008939
121.8,-0.007133
122.00000000000006,-0.0015069999999999
122.2,0.0023979999999999
122.40000000000003,0.0055629999999999
122.59999999999997,0.0064299999999999
122.8,0.005729
123.00000000000006,3.2999999999949736e-05
123.2,-0.0059500000000001
123.40000000000003,-0.008285
123.59999999999997,-0.005651
123.8,-0.002766
124.00000000000006,0.0031909999999999
124.2,0.0064919999999999
124.40000000000003,0.0058849999999999
124.59999999999997,0.0013309999999999
124.8,-0.001309
125.00000000000006,-0.0028380000000001
125.2,-0.003444
125.40000000000003,-0.002356
125.59999999999997,-0.0021459999999999
125.8,-0.001956
126.00000000000006,-0.003381
126.2,-0.0021629999999999
126.40000000000003,-0.0019340000000001
126.59999999999997,-0.0004999999999999
126.8,-0.000828
127.00000000000006,0.000647
127.2,0.001865
127.40000000000003,0.0034359999999999
127.59999999999997,0.0029319999999999
127.8,-0.000188
128.00000000000006,-0.0026459999999999
128.2,-0.0031609999999999
128.40000000000003,-0.0035229999999999
128.59999999999997,-0.0050000000000001
128.8,-0.0012289999999999
129.00000000000006,0.0008669999999999
129.2,0.0007719999999999
129.40000000000003,0.000475
129.59999999999997,0.0028179999999999
129.8,0.0030999999999998
130.00000000000006,0.002356
130.2,0.0019839999999999
130.40000000000003,0.0015829999999998
130.59999999999997,0.0019409999999999
130.8,0.0015959999999999
131.00000000000006,0.0022409999999999
131.2,0.0015689999999999
131.40000000000003,0.0017499999999999
131.59999999999997,0.0020189999999999
131.8,0.004277
132.00000000000006,0.0081109999999999
132.2,0.011149
132.40000000000003,0.010005
132.59999999999997,0.0085759999999999
132.8,0.006745
133.00000000000006,0.002796
133.2,-0.001252
133.40000000000003,-0.001708
133.59999999999997,-0.000785
133.8,-0.001122
134.00000000000006,-0.002353
134.2,-0.0028729999999999
134.40000000000003,-0.003281
134.59999999999997,-0.0048479999999999
134.8,-0.0058610000000001
135.00000000000006,-0.005481
135.2,-0.0046809999999999
135.40000000000003,-0.0039
135.59999999999997,-0.0029239999999999
135.8,-0.0008289999999999
136.00000000000006,0.0013289999999999
136.2,0.0041569999999999
136.40000000000003,0.006156
136.59999999999997,0.0059649999999999
136.8,0.005686
137.00000000000006,0.006126
137.2,0.005082
137.40000000000003,0.003381
137.59999999999997,0.003738
137.8,0.0031969999999998
138.00000000000006,0.002528
138.2,0.0021629999999999
138.40000000000003,0.0020279999999999
138.59999999999997,-0.0012479999999999
138.8,-0.0053909999999999
139.00000000000006,-0.008323
139.2,-0.008369
139.40000000000003,-0.006842
139.59999999999997,-0.003673
139.8,0.0011349999999998
140.00000000000006,0.0056799999999999
140.2,0.0071859999999999
140.40000000000003,0.0080189999999999
140.59999999999997,0.0088489999999998
140.8,0.007281
141.00000000000006,0.002709
141.2,-0.003327
141.40000000000003,-0.0067220000000001
141.59999999999997,-0.0103200000000001
141.8,-0.0113989999999999
142.00000000000006,-0.011775
142.2,-0.0078219999999999
142.40000000000003,-0.007176
142.59999999999997,-0.007057
142.8,-0.006745
143.00000000000006,-0.00712
143.2,-0.009859
143.40000000000003,-0.0122619999999999
143.59999999999997,-0.011983
143.8,-0.0134549999999999
144.00000000000006,-0.0126029999999999
144.2,-0.0085239999999999
144.40000000000003,-0.004758
144.59999999999997,-0.0026159999999999
144.8,0.0008269999999999
145.00000000000006,0.0033909999999999
145.2,0.0028829999999999
145.40000000000003,0.0024779999999999
145.59999999999997,0.0016289999999998
145.8,0.0005319999999999
146.00000000000006,-0.0009529999999999
146.2,-0.0020519999999999
146.40000000000003,-0.0023779999999999
146.59999999999997,-0.0005299999999999
146.8,0.0010799999999999
147.00000000000006,0.000555
147.2,-0.000655
147.40000000000003,-0.001554
147.59999999999997,-0.0030080000000001
147.8,-0.00455
148.00000000000006,-0.0040329999999999
148.2,-0.0046889999999999
148.40000000000003,-0.0062169999999999
148.59999999999997,-0.0062269999999999
148.8,-0.0050699999999999
149.00000000000006,-0.0061040000000001
149.2,-0.0078089999999999
149.40000000000003,-0.005708
149.59999999999997,-0.006523
149.8,-0.00947
150.00000000000006,-0.0087319999999999
150.2,-0.004358
150.40000000000003,-0.0023409999999999
150.59999999999997,0.001222
150.8,0.003543
151.00000000000006,0.0032129999999999
151.2,0.000366
151.40000000000003,-0.0006889999999999
151.59999999999997,-0.0031540000000001
151.8,-0.003249
152.00000000000006,-0.003109
152.2,-0.0021189999999999
152.40000000000003,-0.001808
152.59999999999997,-0.0020519999999999
152.8,-0.0007729999999999
153.00000000000006,0.0002889999999999
153.2,0.003271
153.40000000000003,0.000315
153.59999999999997,-0.0006159999999999
153.8,-0.0053
154.00000000000006,-0.006841
154.2,-0.0096229999999999
154.40000000000003,-0.0055210000000001
154.59999999999997,-0.002585
154.8,0.000469
155.00000000000006,0.001279
155.2,-0.000588
155.40000000000003,-0.0052929999999999
155.59999999999997,-0.008456
155.8,-0.007943
156.00000000000006,-0.007549
156.2,-0.0042359999999999
156.40000000000003,-0.0015959999999999
156.59999999999997,-0.0012240000000001
156.8,-0.0022109999999999
157.00000000000006,-0.0024129999999999
157.2,-0.004075
157.40000000000003,-0.004553
157.59999999999997,-0.003724
157.8,-0.0048570000000001
158.00000000000006,-0.006831
158.2,-0.0075670000000001
158.40000000000003,-0.0101469999999999
158.59999999999997,-0.010976
158.8,-0.0104379999999999
159.00000000000006,-0.0072309999999999
159.2,-0.00482
159.40000000000003,9.799999999993148e-05
159.59999999999997,0.0025699999999999
159.8,0.0050339999999999
160.00000000000006,0.0040849999999998
160.2,0.003781
160.40000000000003,0.0013639999999999
160.59999999999997,-0.0016199999999999
160.8,-0.004016
161.00000000000006,-0.0037309999999999
161.2,-0.004215
161.40000000000003,-0.004647
161.59999999999997,-0.002734
161.8,-0.0013559999999999
162.00000000000006,-0.0012259999999999
162.2,-0.001722
162.40000000000003,-0.000118
162.59999999999997,0.0001379999999999
162.8,-0.0002999999999999
163.00000000000006,-0.000985
163.2,-0.0004399999999999
163.40000000000003,-0.000879
163.59999999999997,0.00015
163.8,0.0013639999999999
164.00000000000006,0.003654
164.2,0.0058059999999999
164.40000000000003,0.0077199999999999
164.59999999999997,0.007803
164.8,0.005921
165.00000000000006,0.000785
165.2,-0.004134
165.40000000000003,-0.0090699999999999
165.59999999999997,-0.013382
165.8,-0.013422
166.00000000000006,-0.010677
166.2,-0.007516
166.40000000000003,-0.004205
166.59999999999997,-0.0008129999999999
166.8,1.6000000000016e-05
167.00000000000006,0.000631
167.2,-0.0001390000000001
167.40000000000003,-0.003292
167.59999999999997,-0.0054179999999999
167.8,-0.007965
168.00000000000006,-0.0110380000000001
168.2,-0.011724
168.40000000000003,-0.0099839999999999
168.59999999999997,-0.01034
168.8,-0.009773
169.00000000000006,-0.0089539999999999
169.2,-0.008413
169.40000000000003,-0.0087619999999999
169.59999999999997,-0.00967
169.8,-0.0099039999999999
170.00000000000006,-0.008197
170.2,-0.0081059999999999
170.40000000000003,-0.009487
170.59999999999997,-0.009363
170.8,-0.0081539999999999
171.00000000000006,-0.006769
171.2,-0.005959
171.40000000000003,-0.003657
171.59999999999997,-0.0025729999999999
171.8,-0.0004029999999999
172.00000000000006,-0.0009959999999999
172.2,0.0005649999999999
172.40000000000003,0.001384
172.59999999999997,0.002852
172.8,0.001621
173.00000000000006,0.0003219999999999
173.2,-0.001298
173.40000000000003,-0.0012229999999999
173.59999999999997,-0.0001390000000001
173.8,0.0021169999999999
174.00000000000006,0.003862
174.2,0.0035469999999999
174.40000000000003,0.003033
174.59999999999997,0.001846
174.8,-0.0001139999999999
175.00000000000006,-0.002142
175.2,-0.004504
175.40000000000003,-0.006753
175.59999999999997,-0.006113
175.8,-0.006453
176.00000000000006,-0.0046969999999999
176.2,-0.0021679999999999
176.40000000000003,-0.000866
176.59999999999997,-0.0007490000000001
176.8,0.0014579999999999
177.00000000000006,-1.8000000000073513e-05
177.2,-0.0005539999999999
177.40000000000003,0.001392
177.59999999999997,0.001111
177.8,-0.002005
178.00000000000006,-0.0018009999999999
178.2,-0.0027589999999999
178.40000000000003,-0.0058599999999999
178.59999999999997,-0.006412
178.8,-0.0047379999999999
179.00000000000006,-0.0053849999999999
179.2,-0.0067019999999999
179.40000000000003,-0.0097629999999999
179.59999999999997,-0.013357
179.8,-0.0171110000000001
180.00000000000006,-0.0181119999999999
180.2,-0.016626
180.40000000000003,-0.0108319999999999
180.6,-0.007233
180.8,-0.005581
181.00000000000009,-0.004337
181.2,-0.0023239999999999
181.40000000000003,-0.0037469999999999
181.6,-0.004115
181.8,-0.002936
182.00000000000009,-0.001797
182.2,-0.0039329999999999
182.40000000000003,-0.005247
182.6,-0.0064059999999999
182.8,-0.006467
183.00000000000009,-0.006917
183.2,-0.0036819999999999
183.40000000000003,1.399999999995849e-05
183.6,0.001587
183.8,0.000428
184.00000000000009,-0.001206
184.2,-0.0041809999999999
184.40000000000003,-0.005803
184.6,-0.005338
184.8,-0.004623
185.00000000000009,-0.0013780000000001
185.2,0.0012319999999998
185.40000000000003,0.002874
185.6,0.003176
185.8,0.002852
186.00000000000009,0.002234
186.2,0.002815
186.40000000000003,0.0027099999999999
186.6,0.0005049999999999
186.8,-0.000488
187.00000000000009,-0.0033499999999999
187.2,-0.008248
187.40000000000003,-0.012518
187.6,-0.0110730000000001
187.8,-0.0075279999999999
188.00000000000009,-0.0048479999999999
188.2,-0.0020469999999999
188.40000000000003,-0.001068
188.6,-0.0024790000000001
188.8,-0.005325
189.00000000000009,-0.0051499999999999
189.2,-0.0029639999999999
189.40000000000003,0.000475
189.6,0.0005489999999999
189.8,0.0001089999999999
190.00000000000009,-0.001014
190.2,-0.003433
190.40000000000003,-0.0038489999999999
190.6,-0.0015640000000001
190.8,0.000124
191.00000000000009,0.001937
191.2,0.004599
191.40000000000003,0.005668
191.6,0.006626
191.8,0.0077789999999999
192.00000000000009,0.006189
192.2,0.003837
192.40000000000003,-0.0009289999999999
192.6,-0.006607
192.8,-0.0084319999999999
193.00000000000009,-0.0086109999999999
193.2,-0.0096560000000001
193.40000000000003,-0.0084550000000001
193.6,-0.005368
193.8,-0.0056199999999999
194.00000000000009,-0.0061390000000001
194.2,-0.0066669999999999
194.40000000000003,-0.008089
194.6,-0.0081040000000001
194.8,-0.0076959999999999
195.00000000000009,-0.0060189999999999
195.2,-0.0046969999999999
195.40000000000003,-0.002129
195.6,-0.0014819999999999
195.8,-0.0006269999999999
196.00000000000009,0.0009479999999999
196.2,0.003152
196.40000000000003,0.0027559999999999
196.6,0.0008109999999998
196.8,0.0007109999999999
197.00000000000009,-0.001927
197.2,-0.003325
197.40000000000003,-0.0031810000000001
197.6,-0.0011890000000001
197.8,-0.001208
198.00000000000009,-0.0007129999999999
198.2,0.0003429999999999
198.40000000000003,0.0023279999999998
198.6,0.002658
198.8,0.001668
199.00000000000009,0.0020819999999999
199.2,0.000455
199.40000000000003,-0.001095
199.6,8.300000000005525e-05
199.8,0.0019139999999999
200.00000000000009,0.0005459999999999
200.2,-0.0019979999999999
200.40000000000003,-0.0042809999999999
200.6,-0.008218
200.8,-0.0111719999999999
201.00000000000009,-0.011975
201.2,-0.0103200000000001
201.40000000000003,-0.009163
201.6,-0.008089
201.8,-0.0070969999999999
202.00000000000009,-0.0064239999999999
202.2,-0.005986
202.40000000000003,-0.0055020000000001
202.6,-0.004037
202.8,-0.0040040000000001
203.00000000000009,-0.005058
203.2,-0.0057039999999999
203.40000000000003,-0.004359
203.6,-0.003641
203.8,-0.0032849999999999
204.00000000000009,-0.0027209999999999
204.2,-0.002944
204.40000000000003,-0.004733
204.6,-0.0046759999999999
204.8,-0.0045209999999999
205.00000000000009,-0.0060139999999999
205.2,-0.0087289999999999
205.40000000000003,-0.010617
205.6,-0.0125509999999999
205.8,-0.0130719999999999
206.00000000000009,-0.0105679999999999
206.2,-0.008164
206.40000000000003,-0.0086669999999999
206.6,-0.0104999999999999
206.8,-0.0118139999999999
207.00000000000009,-0.012013
207.2,-0.009463
207.40000000000003,-0.0061599999999999
207.6,-0.003222
207.8,-0.0021580000000001
208.00000000000009,-0.0049589999999999
208.2,-0.009978
208.40000000000003,-0.012496
208.6,-0.0126299999999999
208.8,-0.0108779999999999
209.00000000000009,-0.0108840000000001
209.2,-0.0102269999999999
209.40000000000003,-0.01058
209.6,-0.0105440000000001
209.8,-0.011373
210.00000000000009,-0.009967
210.2,-0.0077579999999999
210.40000000000003,-0.0066399999999999
210.6,-0.006882
210.8,-0.006556
211.00000000000009,-0.005325
211.2,-0.005722
211.40000000000003,-0.004798
211.6,-0.003635
211.8,-0.0034829999999999
212.00000000000009,-0.0045219999999999
212.2,-0.0043349999999999
212.40000000000003,-0.004645
212.6,-0.0056
212.8,-0.0053400000000001
213.00000000000009,-0.00702
213.2,-0.0081539999999999
213.40000000000003,-0.009827
213.6,-0.010971
213.8,-0.013184
214.00000000000009,-0.0100230000000001
214.2,-0.0085600000000001
214.40000000000003,-0.0066600000000001
214.6,-0.006583
214.8,-0.004914
215.00000000000009,-0.0055830000000001
215.2,-0.0059880000000001
215.40000000000003,-0.005827
215.6,-0.0046429999999999
215.8,-0.006591
216.00000000000009,-0.007816
216.2,-0.0083699999999999
216.40000000000003,-0.008707
216.6,-0.005832
216.8,-0.0011289999999999
217.00000000000009,0.0009559999999999
217.2,0.0024699999999999
217.40000000000003,0.0021849999999998
217.6,-0.003112
217.8,-0.009446
218.00000000000009,-0.012985
218.2,-0.015805
218.40000000000003,-0.0156089999999999
218.6,-0.012545
218.8,-0.0088809999999999
219.00000000000009,-0.0067509999999999
219.2,-0.0046839999999999
219.40000000000003,-0.003122
219.6,-0.005765
219.8,-0.0082349999999999
220.00000000000009,-0.00835
220.2,-0.007381
220.40000000000003,-0.007945
220.6,-0.006582
220.8,-0.0052879999999999
221.00000000000009,-0.004842
221.2,-0.005371
221.40000000000003,-0.0063200000000001
221.6,-0.0076339999999999
221.8,-0.008137
222.00000000000009,-0.008345
222.2,-0.0078610000000001
222.40000000000003,-0.0075359999999999
222.6,-0.005452
222.8,-0.0018679999999999
223.00000000000009,-9.499999999995624e-05
223.2,-0.0016279999999999
223.40000000000003,-0.003368
223.6,-0.0056869999999999
223.8,-0.01041
224.00000000000009,-0.0128410000000001
224.2,-0.010941
224.40000000000003,-0.006974
224.6,-0.002866
224.8,0.001532
225.00000000000009,0.0043239999999999
225.2,0.004183
225.40000000000003,0.0021629999999999
225.6,0.0012469999999999
225.8,-0.000728
226.00000000000009,-0.001721
226.2,-0.004383
226.40000000000003,-0.005373
226.6,-0.0089159999999999
226.8,-0.011247
227.00000000000009,-0.011978
227.2,-0.0091049999999999
227.40000000000003,-0.004353
227.6,-0.0007950000000001
227.8,0.0019119999999999
228.00000000000009,0.002259
228.2,0.00032
228.40000000000003,-0.0050589999999999
228.6,-0.0085029999999999
228.8,-0.0094750000000001
229.00000000000009,-0.010593
229.2,-0.012064
229.40000000000003,-0.0114289999999999
229.6,-0.009498
229.8,-0.0095899999999999
230.00000000000009,-0.0107330000000001
230.2,-0.0087619999999999
230.40000000000003,-0.006089
230.6,-0.003802
230.8,-0.0019169999999999
231.00000000000009,2.999999999997449e-05
231.2,-0.000183
231.40000000000003,-0.0031289999999999
231.6,-0.0053259999999999
231.8,-0.0075989999999999
232.00000000000009,-0.009935
232.2,-0.0106410000000001
232.40000000000003,-0.0092209999999999
232.6,-0.008342
232.8,-0.0074309999999999
233.00000000000009,-0.0053240000000001
233.2,-0.0044729999999999
233.40000000000003,-0.0054799999999999
233.6,-0.0067809999999999
233.8,-0.0058070000000001
234.00000000000009,-0.005735
234.2,-0.006386
234.40000000000003,-0.0069669999999999
234.6,-0.0081279999999999
234.8,-0.009632
235.00000000000009,-0.0114959999999999
235.2,-0.0109319999999999
235.40000000000003,-0.008636
235.6,-0.0066889999999999
235.8,-0.0057769999999999
236.00000000000009,-0.0055909999999999
236.2,-0.005746
236.40000000000003,-0.0083900000000001
236.6,-0.0090639999999999
236.8,-0.0099039999999999
237.00000000000009,-0.009727
237.2,-0.008059
237.40000000000003,-0.0059150000000001
237.6,-0.0050529999999999
237.8,-0.004291
238.00000000000009,-0.0026079999999999
238.2,-0.0034499999999999
238.40000000000003,-0.0047140000000001
238.6,-0.0067289999999999
238.8,-0.0085049999999999
239.00000000000009,-0.0111179999999999
239.2,-0.0149699999999999
239.40000000000003,-0.016823
239.6,-0.0180329999999999
239.8,-0.017776
240.00000000000009,-0.0145049999999999
240.2,-0.010223
240.40000000000003,-0.006418
240.6,-0.0044509999999999
240.8,-0.0027129999999999
241.00000000000009,-0.0017199999999999
241.2,-0.002099
241.40000000000003,-0.003306
241.6,-0.0009650000000001
241.8,-0.00045
242.00000000000009,-0.0015789999999999
242.2,-0.0035849999999999
242.40000000000003,-0.007023
242.6,-0.011349
242.8,-0.013633
243.00000000000009,-0.0161979999999999
243.2,-0.0181629999999999
243.40000000000003,-0.0183470000000001
243.6,-0.01591
243.8,-0.0137819999999999
244.00000000000009,-0.010494
244.2,-0.0058139999999999
244.40000000000003,-0.001017
244.6,-0.0021219999999999
244.8,-0.0052099999999999
245.00000000000009,-0.008054
245.2,-0.007803
245.40000000000003,-0.0089289999999999
245.6,-0.0063630000000001
245.8,-0.0040389999999999
246.00000000000009,-0.0020759999999999
246.2,-0.0035119999999999
246.40000000000003,-0.004771
246.6,-0.0068999999999999
246.8,-0.0078769999999999
247.00000000000009,-0.010712
247.2,-0.0150049999999999
247.40000000000003,-0.016893
247.6,-0.0181960000000001
247.8,-0.018072
248.00000000000009,-0.016391
248.2,-0.0119800000000001
248.40000000000003,-0.009735
248.6,-0.0069859999999999
248.8,-0.0060040000000001
249.00000000000009,-0.004167
249.2,-0.0024939999999999
249.40000000000003,-0.0012499999999999
249.6,-0.002985
249.8,-0.005495
250.00000000000009,-0.009155
250.2,-0.011727
250.40000000000003,-0.0111080000000001
250.6,-0.0111769999999999
250.8,-0.010461
251.00000000000009,-0.0096609999999999
251.2,-0.009713
251.40000000000003,-0.010224
251.6,-0.0091509999999999
251.8,-0.0062619999999999
252.00000000000009,-0.0034590000000001
252.2,-0.001533
252.40000000000003,7.80000000000225e-05
252.6,-0.0013689999999999
252.8,-0.0026509999999999
253.00000000000009,-0.003654
253.2,-0.0031909999999999
253.40000000000003,-0.004412
253.6,-0.002115
253.8,-0.001875
254.00000000000009,-0.0027539999999999
254.2,-0.0056069999999999
254.40000000000003,-0.0068989999999999
254.6,-0.0086479999999999
254.8,-0.0092019999999999
255.00000000000009,-0.0081439999999999
255.2,-0.007503
255.40000000000003,-0.0088049999999999
255.6,-0.009692
255.8,-0.010979
256.00000000000006,-0.0123489999999999
256.2,-0.0139229999999999
256.40000000000003,-0.014745
256.6,-0.016459
256.8,-0.0176609999999999
257.00000000000006,-0.0181219999999999
257.2,-0.014248
257.40000000000003,-0.0104980000000001
257.6,-0.0073559999999999
257.8,-0.0059789999999999
258.00000000000006,-0.0048479999999999
258.2,-0.0069609999999999
258.40000000000003,-0.008307
258.6,-0.0069429999999999
258.8,-0.0032430000000001
259.00000000000006,-0.0016929999999999
259.2,8.900000000000574e-05
259.40000000000003,-0.0001759999999999
259.6,-0.0004649999999999
259.8,-0.0031069999999999
260.00000000000006,-0.005479
260.2,-0.008485
260.40000000000003,-0.010113
260.6,-0.0130810000000001
260.8,-0.0134320000000001
261.00000000000006,-0.010796
261.2,-0.007694
261.40000000000003,-0.006663
261.6,-0.0045269999999999
261.8,-0.0042269999999999
262.00000000000006,-0.0046459999999999
262.2,-0.0050499999999999
262.40000000000003,-0.0049110000000001
262.6,-0.0067330000000001
262.8,-0.0066429999999999
263.00000000000006,-0.005516
263.2,-0.0040839999999999
263.40000000000003,-0.0026969999999999
263.6,-0.001557
263.8,-0.003856
264.00000000000006,-0.0072510000000001
264.2,-0.011613
264.40000000000003,-0.014429
264.6,-0.0169429999999999
264.8,-0.016982
265.00000000000006,-0.0161979999999999
265.2,-0.0144779999999999
265.40000000000003,-0.0136359999999999
265.6,-0.0128779999999999
265.8,-0.0136689999999999
266.00000000000006,-0.013948
266.2,-0.0158450000000001
266.40000000000003,-0.0151239999999999
266.6,-0.012186
266.8,-0.007106
267.00000000000006,-0.005867
267.2,-0.004032
267.40000000000003,-0.0057849999999999
267.6,-0.0076069999999999
267.8,-0.0112909999999999
268.00000000000006,-0.013117
268.2,-0.0148159999999999
268.40000000000003,-0.0148559999999999
268.6,-0.014537
268.8,-0.014305
269.00000000000006,-0.014053
269.2,-0.0125999999999999
269.40000000000003,-0.0092449999999999
269.6,-0.006887
269.8,-0.0041109999999999
270.00000000000006,-0.00533
270.2,-0.0056309999999999
270.40000000000003,-0.0082089999999999
270.6,-0.01027
270.8,-0.013057
271.00000000000006,-0.011865
271.2,-0.0106209999999999
271.40000000000003,-0.0096480000000001
271.6,-0.0096419999999999
271.8,-0.0077769999999999
272.00000000000006,-0.0081729999999999
272.2,-0.0095020000000001
272.40000000000003,-0.0118489999999999
272.6,-0.0130810000000001
272.8,-0.015497
273.00000000000006,-0.0152419999999999
273.2,-0.015184
273.40000000000003,-0.0137039999999999
273.6,-0.013541
273.8,-0.014523
274.00000000000006,-0.0156099999999999
274.2,-0.0157069999999999
274.40000000000003,-0.0157830000000001
274.6,-0.014723
274.8,-0.0103010000000001
275.00000000000006,-0.008575
275.2,-0.010186
275.40000000000003,-0.0104599999999999
275.6,-0.0103159999999999
275.8,-0.013031
276.00000000000006,-0.0126969999999999
276.2,-0.0101919999999999
276.40000000000003,-0.008928
276.6,-0.0094009999999999
276.8,-0.0090239999999999
277.00000000000006,-0.010474
277.2,-0.012013
277.40000000000003,-0.011808
277.6,-0.01123
277.8,-0.009746
278.00000000000006,-0.009219
278.2,-0.0092639999999999
278.40000000000003,-0.01096
278.6,-0.01187
278.8,-0.009892
279.00000000000006,-0.0060329999999999
279.2,-0.003689
279.40000000000003,-0.0018499999999999
279.6,-0.0019029999999999
279.8,-0.0054449999999999
280.00000000000006,-0.009227
280.2,-0.011389
280.40000000000003,-0.014461
280.6,-0.014731
280.8,-0.0140249999999999
281.00000000000006,-0.0134590000000001
281.2,-0.013687
281.40000000000003,-0.0113229999999999
281.6,-0.0091639999999999
281.8,-0.008898
282.00000000000006,-0.007435
282.2,-0.007487
282.40000000000003,-0.008691
282.6,-0.0111159999999999
282.8,-0.012961
283.00000000000006,-0.0144919999999999
283.2,-0.01167
283.40000000000003,-0.0065170000000001
283.6,-0.0045939999999999
283.8,-0.0037370000000001
284.00000000000006,-0.0022159999999999
284.2,-0.0014210000000001
284.40000000000003,-0.0036169999999999
284.6,-0.004949
284.8,-0.0025429999999999
285.00000000000006,-0.0024569999999999
285.2,-0.003589
285.40000000000003,-0.0051639999999999
285.6,-0.0029909999999999
285.8,-0.0039770000000001
286.00000000000006,-0.0042629999999999
286.2,-0.003044
286.40000000000003,-0.0010559999999999
286.6,-0.0022200000000001
286.8,-0.0038260000000001
287.00000000000006,-0.005702
287.2,-0.0069509999999999
287.40000000000003,-0.0085319999999999
287.6,-0.009551
287.8,-0.0097800000000001
288.00000000000006,-0.00764
288.2,-0.0079029999999999
288.40000000000003,-0.008882
288.6,-0.0085250000000001
288.8,-0.0076629999999999
289.00000000000006,-0.0098800000000001
289.2,-0.0105219999999999
289.40000000000003,-0.0073860000000001
289.6,-0.005848
289.8,-0.007052
290.00000000000006,-0.008507
290.2,-0.013076
290.40000000000003,-0.0173799999999999
290.6,-0.0203409999999999
290.8,-0.0191559999999999
291.00000000000006,-0.016801
291.2,-0.0125649999999999
291.40000000000003,-0.011063
291.6,-0.009859
291.8,-0.0104569999999999
292.00000000000006,-0.0109159999999999
292.2,-0.009665
292.40000000000003,-0.00703
292.6,-0.005411
292.8,-0.004032
293.00000000000006,-0.0021519999999999
293.2,-0.001398
293.40000000000003,-0.0036519999999999
293.6,-0.0043409999999999
293.8,-0.0030879999999999
294.00000000000006,-0.003881
294.2,-0.005592
294.40000000000003,-0.0058739999999999
294.6,-0.0059679999999999
294.8,-0.006664
295.00000000000006,-0.0089049999999999
295.2,-0.0100770000000001
295.40000000000003,-0.0096100000000001
295.6,-0.008278
295.8,-0.0071700000000001
295.99999999999994,-0.0118439999999999
296.2,-0.013149
296.3999999999999,-0.0138249999999999
296.6,-0.013266
296.8,-0.0145680000000001
296.99999999999994,-0.0139070000000001
297.2,-0.014248
297.3999999999999,-0.014415
297.6,-0.017889
297.8,-0.02132
297.99999999999994,-0.0225250000000001
298.2,-0.021198
298.3999999999999,-0.019713
298.6,-0.0186140000000001
298.8,-0.0158869999999999
298.99999999999994,-0.016534
299.2,-0.0156450000000001
299.3999999999999,-0.016504
299.6,-0.0157910000000001
299.8,-0.0185410000000001
299.99999999999994,-0.0178
300.2,-0.0201740000000001
300.3999999999999,-0.0224649999999999
300.6,-0.0251719999999999
300.8,-0.0248190000000001
300.99999999999994,-0.0261040000000001
301.2,-0.025965
301.3999999999999,-0.02641
301.6,-0.027185
301.8,-0.0263390000000001
301.99999999999994,-0.0260040000000001
302.2,-0.0279469999999999
302.3999999999999,-0.029908
302.6,-0.0284600000000001
302.8,-0.0308950000000001
302.99999999999994,-0.032664
303.2,-0.0320739999999999
303.3999999999999,-0.0295769999999999
303.6,-0.0279199999999999
303.8,-0.026796
303.99999999999994,-0.0264390000000001
304.2,-0.026809
304.3999999999999,-0.0262420000000001
304.6,-0.026397
304.8,-0.0248220000000001
304.99999999999994,-0.0250080000000001
305.2,-0.0257990000000001
305.3999999999999,-0.026966
305.6,-0.0259070000000001
305.8,-0.0252989999999999
305.99999999999994,-0.022378
306.2,-0.019131
306.3999999999999,-0.0159580000000001
306.6,-0.016529
306.8,-0.016593
306.99999999999994,-0.018385
307.2,-0.0233309999999999
307.3999999999999,-0.0284619999999999
307.6,-0.0304459999999999
307.8,-0.032294
307.99999999999994,-0.035503
308.2,-0.0358420000000001
308.3999999999999,-0.0341740000000001
308.6,-0.032316
308.8,-0.030874
308.99999999999994,-0.028372
309.2,-0.0287920000000001
309.3999999999999,-0.029808
309.6,-0.03272
309.8,-0.0344889999999999
309.99999999999994,-0.037452
310.2,-0.036353
310.3999999999999,-0.037465
310.6,-0.0361549999999999
310.8,-0.0355100000000001
310.99999999999994,-0.032416
311.2,-0.0278020000000001
311.3999999999999,-0.0229920000000001
311.6,-0.0209570000000001
311.8,-0.0200009999999999
311.99999999999994,-0.0199770000000001
312.2,-0.0259949999999999
312.3999999999999,-0.0306619999999999
312.6,-0.033579
312.8,-0.0344679999999999
312.99999999999994,-0.036057
313.2,-0.0350460000000001
313.3999999999999,-0.0345919999999999
313.6,-0.0330950000000001
313.8,-0.034647
313.99999999999994,-0.03431
314.2,-0.0326680000000001
314.3999999999999,-0.031722
314.6,-0.035897
314.8,-0.0353369999999999
314.99999999999994,-0.0333099999999999
315.2,-0.0326699999999999
315.3999999999999,-0.0317709999999999
315.6,-0.0285349999999999
315.8,-0.028081
315.99999999999994,-0.0312320000000001
316.2,-0.0349779999999999
316.3999999999999,-0.0374050000000001
316.6,-0.037692
316.8,-0.036086
316.99999999999994,-0.035079
317.2,-0.0321310000000001
317.3999999999999,-0.0309019999999999
317.6,-0.033355
317.8,-0.038793
317.99999999999994,-0.039574
318.2,-0.0397670000000001
318.3999999999999,-0.039687
318.6,-0.0356370000000001
318.8,-0.0310220000000001
318.99999999999994,-0.0300549999999999
319.2,-0.0289639999999999
319.3999999999999,-0.027805
319.6,-0.0285550000000001
319.8,-0.028423
319.99999999999994,-0.0271639999999999
320.2,-0.0269030000000001
320.3999999999999,-0.0294419999999999
320.6,-0.0324170000000001
320.8,-0.035206
320.99999999999994,-0.0347030000000001
321.2,-0.0347889999999999
321.3999999999999,-0.0329950000000001
321.6,-0.031619
321.8,-0.0299359999999999
321.99999999999994,-0.0324809999999999
322.2,-0.0337929999999999
322.3999999999999,-0.0319439999999999
322.6,-0.0298739999999999
322.8,-0.0312810000000001
322.99999999999994,-0.031714
323.2,-0.0325569999999999
323.3999999999999,-0.0348349999999999
323.6,-0.0349859999999999
323.8,-0.032389
323.99999999999994,-0.03079
324.2,-0.0300629999999999
324.3999999999999,-0.0293890000000001
324.6,-0.0298309999999999
324.8,-0.0297979999999999
324.99999999999994,-0.027641
325.2,-0.0261299999999999
325.3999999999999,-0.0235199999999999
325.6,-0.0216560000000001
325.8,-0.0234609999999999
325.99999999999994,-0.0261649999999999
326.2,-0.0275199999999999
326.3999999999999,-0.032032
326.6,-0.0352700000000001
326.8,-0.0357750000000001
326.99999999999994,-0.0346079999999999
327.2,-0.034232
327.3999999999999,-0.0324759999999999
327.6,-0.031598
327.8,-0.030486
327.99999999999994,-0.0291639999999999
328.2,-0.0284809999999999
328.3999999999999,-0.028186
328.6,-0.028988
328.8,-0.028207
328.99999999999994,-0.0284600000000001
329.2,-0.0276830000000001
329.3999999999999,-0.028291
329.6,-0.028869
329.8,-0.03184
329.99999999999994,-0.034853
330.2,-0.0383919999999999
330.3999999999999,-0.0372050000000001
330.6,-0.03604
330.8,-0.0331209999999999
330.99999999999994,-0.0302949999999999
331.2,-0.027169
331.3999999999999,-0.027249
331.6,-0.027401
331.8,-0.0264219999999999
331.99999999999994,-0.0275739999999999
332.2,-0.0273799999999999
332.3999999999999,-0.027471
332.6,-0.0286090000000001
332.8,-0.032596
332.99999999999994,-0.0342219999999999
333.2,-0.0368049999999999
333.3999999999999,-0.037147
333.6,-0.0347060000000001
333.8,-0.029652
333.99999999999994,-0.0266779999999999
334.2,-0.025522
334.3999999999999,-0.0256309999999999
334.6,-0.0287710000000001
334.8,-0.031949
334.99999999999994,-0.0328680000000001
335.2,-0.0305889999999999
335.3999999999999,-0.0303299999999999
335.6,-0.028529
335.8,-0.027716
335.99999999999994,-0.0271160000000001
336.2,-0.026118
336.3999999999999,-0.0258629999999999
336.6,-0.0258089999999999
336.8,-0.025514
336.99999999999994,-0.0262139999999999
337.2,-0.0276050000000001
337.3999999999999,-0.02688
337.6,-0.025986
337.8,-0.0262770000000001
337.99999999999994,-0.0258230000000001
338.2,-0.026148
338.3999999999999,-0.026459
338.6,-0.0244870000000001
338.8,-0.0237359999999999
338.99999999999994,-0.025249
339.2,-0.0265520000000001
339.3999999999999,-0.026164
339.6,-0.0295499999999999
339.8,-0.030469
339.99999999999994,-0.029651
340.2,-0.0287600000000001
340.3999999999999,-0.0303999999999999
340.6,-0.027984
340.8,-0.0281040000000001
340.99999999999994,-0.027225
341.2,-0.0265029999999999
341.3999999999999,-0.025004
341.6,-0.0253210000000001
341.8,-0.024783
341.99999999999994,-0.024952
342.2,-0.0265649999999999
342.3999999999999,-0.02726
342.6,-0.0282379999999999
342.8,-0.0304010000000001
342.99999999999994,-0.0330749999999999
343.2,-0.0343900000000001
343.3999999999999,-0.036464
343.6,-0.037393
343.8,-0.0385740000000001
343.99999999999994,-0.038386
344.2,-0.0380469999999999
344.3999999999999,-0.0382120000000001
344.6,-0.0377229999999999
344.8,-0.0336879999999999
344.99999999999994,-0.033611
345.2,-0.0359180000000001
345.3999999999999,-0.037544
345.6,-0.039179
345.8,-0.0421230000000001
345.99999999999994,-0.0404820000000001
346.2,-0.0380549999999999
346.3999999999999,-0.035527
346.6,-0.0339929999999999
346.8,-0.0306520000000001
346.99999999999994,-0.029058
347.2,-0.0276210000000001
347.3999999999999,-0.0267710000000001
347.6,-0.026853
347.8,-0.0288319999999999
347.99999999999994,-0.0301040000000001
348.2,-0.029876
348.3999999999999,-0.0310490000000001
348.6,-0.0300580000000001
348.8,-0.0305630000000001
348.99999999999994,-0.0320800000000001
349.2,-0.033652
349.3999999999999,-0.0350019999999999
349.6,-0.036674
349.8,-0.0367980000000001
349.99999999999994,-0.035093
350.2,-0.036785
350.3999999999999,-0.035079
350.6,-0.034038
350.8,-0.0328539999999999
350.99999999999994,-0.032526
351.2,-0.0281010000000001
351.3999999999999,-0.029703
351.6,-0.0325429999999999
351.8,-0.034337
351.99999999999994,-0.036591
352.2,-0.0388140000000001
352.3999999999999,-0.037419
352.6,-0.03539
352.8,-0.034804
352.99999999999994,-0.0336879999999999
353.2,-0.0357309999999999
353.3999999999999,-0.0362299999999999
353.6,-0.03644
353.8,-0.0347440000000001
353.99999999999994,-0.034783
354.2,-0.033347
354.3999999999999,-0.030672
354.6,-0.0257290000000001
354.8,-0.023911
354.99999999999994,-0.0219139999999999
355.2,-0.022912
355.3999999999999,-0.0251689999999999
355.6,-0.0312460000000001
355.8,-0.0350779999999999
355.99999999999994,-0.037819
356.2,-0.0373499999999999
356.3999999999999,-0.0411460000000001
356.6,-0.0423390000000001
356.8,-0.0418849999999999
356.99999999999994,-0.042545
357.2,-0.041474
357.3999999999999,-0.035978
357.6,-0.0324409999999999
357.8,-0.0318309999999999
357.99999999999994,-0.030308
358.2,-0.031066
358.3999999999999,-0.0325630000000001
358.6,-0.03356
358.8,-0.0322900000000001
358.99999999999994,-0.031155
359.2,-0.030259
359.3999999999999,-0.029516
359.6,-0.0287239999999999
359.8,-0.0285999999999999
359.99999999999994,-0.031212
360.2,-0.0303660000000001
360.3999999999999,-0.0312730000000001
360.6,-0.033714
360.8,-0.0373860000000001
361.0,-0.03709
361.2,-0.0381420000000001
361.3999999999999,-0.038116
361.6,-0.0351350000000001
361.8,-0.035393
362.0,-0.036909
362.2,-0.037949
362.3999999999999,-0.038907
362.6,-0.0416039999999999
362.8,-0.0417739999999999
363.0,-0.0424569999999999
363.2,-0.045582
363.3999999999999,-0.045984
363.6,-0.0445079999999999
363.8,-0.043906
364.0,-0.043104
364.2,-0.0394639999999999
364.3999999999999,-0.0377320000000001
364.6,-0.0370570000000001
364.8,-0.034629
365.0,-0.0322869999999999
365.2,-0.0337659999999999
365.3999999999999,-0.0354799999999999
365.6,-0.0367710000000001
365.8,-0.036461
366.0,-0.0363649999999999
366.2,-0.035349
366.3999999999999,-0.0341549999999999
366.6,-0.033773
366.8,-0.034804
367.0,-0.0357340000000001
367.2,-0.0334080000000001
367.3999999999999,-0.0324889999999999
367.6,-0.031619
367.8,-0.0326349999999999
368.0,-0.0305429999999999
368.2,-0.033784
368.3999999999999,-0.0362489999999999
368.6,-0.0366029999999999
368.8,-0.0359549999999999
369.0,-0.037034
369.2,-0.034426
369.3999999999999,-0.0328809999999999
369.6,-0.03356
369.8,-0.03489
370.0,-0.035201
370.2,-0.0384710000000001
370.3999999999999,-0.038818
370.6,-0.038407
370.8,-0.036642
371.0,-0.034979
371.2,-0.030024
371.3999999999999,-0.0277929999999999
371.6,-0.0285889999999999
371.8,-0.028561
372.0,-0.0288509999999999
372.2,-0.0311730000000001
372.3999999999999,-0.0357819999999999
372.6,-0.038308
372.8,-0.040812
373.0,-0.043144
373.2,-0.0430730000000001
373.3999999999999,-0.0397560000000001
373.6,-0.0374400000000001
373.8,-0.0359880000000001
374.0,-0.035274
374.2,-0.0381599999999999
374.3999999999999,-0.0425919999999999
374.6,-0.0454080000000001
374.8,-0.0457689999999999
375.0,-0.0478309999999999
375.2,-0.0473369999999999
375.3999999999999,-0.0447950000000001
375.6,-0.0434780000000001
375.8,-0.0436830000000001
376.0,-0.0414419999999999
376.2,-0.0388440000000001
376.3999999999999,-0.0378560000000001
376.6,-0.037195
376.8,-0.0379009999999999
377.0,-0.0404630000000001
377.2,-0.043285
377.3999999999999,-0.0437199999999999
377.6,-0.0441949999999999
377.8,-0.0402629999999999
378.0,-0.037025
378.2,-0.033587
378.3999999999999,-0.032051
378.6,-0.028135
378.8,-0.029182
379.0,-0.030817
379.2,-0.0330559999999999
379.3999999999999,-0.0342409999999999
379.6,-0.037182
379.8,-0.0402120000000001
380.0,-0.04129
380.2,-0.0386470000000001
380.3999999999999,-0.037581
380.6,-0.0373670000000001
380.8,-0.0353019999999999
381.0,-0.035336
381.2,-0.0402960000000001
381.3999999999999,-0.0448239999999999
381.6,-0.043193
381.8,-0.042974
382.0,-0.0409129999999999
382.2,-0.038372
382.3999999999999,-0.0337959999999999
382.6,-0.0337549999999999
382.8,-0.036342
383.0,-0.038966
383.2,-0.0406569999999999
383.3999999999999,-0.042313
383.6,-0.045789
383.8,-0.04519
384.0,-0.0405919999999999
384.2,-0.035582
384.3999999999999,-0.03278
384.6,-0.0281029999999999
384.8,-0.026585
385.0,-0.0316339999999999
385.2,-0.0355860000000001
385.3999999999999,-0.040475
385.6,-0.0452350000000001
385.8,-0.045579
386.0,-0.044035
386.2,-0.0447029999999999
386.3999999999999,-0.045727
386.6,-0.047951
386.8,-0.0514909999999999
387.0,-0.0507440000000001
387.2,-0.048127
387.3999999999999,-0.0415259999999999
387.6,-0.0324980000000001
387.8,-0.025058
388.0,-0.0232419999999999
388.2,-0.0254640000000001
388.3999999999999,-0.0294099999999999
388.6,-0.0366790000000001
388.8,-0.042877
389.0,-0.0455480000000001
389.2,-0.0467060000000001
389.3999999999999,-0.0482420000000001
389.6,-0.043752
389.8,-0.0375
390.0,-0.0352920000000001
390.2,-0.033759
390.3999999999999,-0.0324390000000001
390.6,-0.036551
390.8,-0.0413609999999999
391.0,-0.042235
391.2,-0.04194
391.3999999999999,-0.0406999999999999
391.6,-0.037773
391.8,-0.037098
392.0,-0.0371369999999999
392.2,-0.036988
392.3999999999999,-0.0385900000000001
392.6,-0.039584
392.8,-0.0383759999999999
393.0,-0.03963
393.2,-0.0412460000000001
393.3999999999999,-0.0388049999999999
393.6,-0.03922
393.8,-0.041152
394.0,-0.0427600000000001
394.2,-0.043428
394.3999999999999,-0.0453810000000001
394.6,-0.0456780000000001
394.8,-0.045231
395.0,-0.0444040000000001
395.2,-0.041581
395.3999999999999,-0.0425079999999999
395.6,-0.0455529999999999
395.8,-0.0490300000000001
396.0,-0.049655
396.2,-0.051053
396.3999999999999,-0.047857
396.6,-0.043827
396.8,-0.0388859999999999
397.0,-0.0354540000000001
397.2,-0.0329920000000001
397.3999999999999,-0.034426
397.6,-0.034696
397.8,-0.035943
398.0,-0.0400150000000001
398.2,-0.0463230000000001
398.3999999999999,-0.0515499999999999
398.6,-0.056157
398.8,-0.0566539999999999
399.0,-0.05532
399.2,-0.050912
399.3999999999999,-0.0456389999999999
399.6,-0.039897
399.8,-0.040116
400.0,-0.0410669999999999
400.2,-0.043587
400.3999999999999,-0.0457800000000001
400.6,-0.0494609999999999
400.8,-0.049873
401.0,-0.0468319999999999
401.2,-0.042845
401.3999999999999,-0.0400310000000001
401.6,-0.0381359999999999
401.8,-0.0358960000000001
402.0,-0.0359100000000001
402.2,-0.037347
402.3999999999999,-0.0393749999999999
402.6,-0.039989
402.8,-0.0420089999999999
403.0,-0.0445299999999999
403.2,-0.0470190000000001
403.3999999999999,-0.048758
403.6,-0.049663
403.8,-0.04804
404.0,-0.044958
404.2,-0.04116
404.3999999999999,-0.0370779999999999
404.6,-0.033322
404.8,-0.0346790000000001
405.0,-0.0385919999999999
405.2,-0.042305
405.3999999999999,-0.0448699999999999
405.6,-0.0471909999999999
405.8,-0.0450639999999999
406.0,-0.040928
406.2,-0.03868
406.3999999999999,-0.037239
406.6,-0.037338
406.8,-0.0374289999999999
407.0,-0.0390730000000001
407.2,-0.0383550000000001
407.3999999999999,-0.0388490000000001
407.6,-0.0375579999999999
407.8,-0.038642
408.0,-0.038092
408.2,-0.0369760000000001
408.3999999999999,-0.035406
408.6,-0.037495
408.8,-0.038345
409.0,-0.0405349999999999
409.2,-0.043889
409.3999999999999,-0.0458940000000001
409.6,-0.045994
409.8,-0.046996
410.0,-0.0465090000000001
410.2,-0.0446459999999999
410.3999999999999,-0.0417879999999999
410.6,-0.0383280000000001
410.8,-0.0359739999999999
411.0,-0.035538
411.2,-0.0357610000000001
411.3999999999999,-0.0359869999999999
411.6,-0.037679
411.8,-0.0394940000000001
412.0,-0.0395499999999999
412.2,-0.042972
412.3999999999999,-0.0495590000000001
412.6,-0.053004
412.8,-0.053525
413.0,-0.0557659999999999
413.2,-0.0539849999999999
413.3999999999999,-0.0507779999999999
413.6,-0.049047
413.8,-0.0497320000000001
414.0,-0.0468520000000001
414.2,-0.0460389999999999
414.3999999999999,-0.046429
414.6,-0.0475039999999999
414.8,-0.0450129999999999
415.0,-0.043153
415.2,-0.0395430000000001
415.3999999999999,-0.037309
415.6,-0.0351840000000001
415.8,-0.0361340000000001
416.0,-0.0388840000000001
416.2,-0.0434210000000001
416.3999999999999,-0.0459450000000001
416.6,-0.0468319999999999
416.8,-0.0464299999999999
417.0,-0.044264
417.2,-0.044591
417.3999999999999,-0.044772
417.6,-0.0443
417.8,-0.043107
418.0,-0.043754
418.2,-0.0410289999999999
418.3999999999999,-0.0395430000000001
418.6,-0.0400679999999999
418.8,-0.043061
419.0,-0.045336
419.2,-0.047493
419.3999999999999,-0.0462500000000001
419.6,-0.0443219999999999
419.8,-0.0429490000000001
420.0,-0.043182
420.2,-0.0432639999999999
420.3999999999999,-0.044675
420.6,-0.04692
420.8,-0.048507
421.0,-0.0504569999999999
421.2,-0.0512030000000001
421.3999999999999,-0.0493399999999999
421.6,-0.048885
421.8,-0.0476449999999999
422.0,-0.044821
422.2,-0.0433689999999999
422.3999999999999,-0.046634
422.6,-0.046105
422.8,-0.0438419999999999
423.0,-0.0434970000000001
423.2,-0.0426790000000001
423.3999999999999,-0.041017
423.6,-0.041536
423.8,-0.045485
424.0,-0.0474499999999999
424.2,-0.049754
424.3999999999999,-0.051798
424.6,-0.0530209999999999
424.8,-0.0522530000000001
425.0,-0.0510650000000001
425.2,-0.050605
425.3999999999999,-0.048775
425.6,-0.0465930000000001
425.8,-0.0434369999999999
426.0,-0.0431319999999999
426.2,-0.0406429999999999
426.3999999999999,-0.037676
426.6,-0.0381470000000001
426.8,-0.0411380000000001
427.0,-0.041662
427.2,-0.04285
427.3999999999999,-0.04678
427.6,-0.046696
427.8,-0.0432209999999999
428.0,-0.0404329999999999
428.2,-0.0382649999999999
428.3999999999999,-0.0371000000000001
428.6,-0.0389300000000001
428.8,-0.042494
429.0,-0.0423789999999999
429.2,-0.0435400000000001
429.3999999999999,-0.043328
429.6,-0.043385
429.8,-0.0439210000000001
430.0,-0.0477640000000001
430.2,-0.048961
430.3999999999999,-0.048267
430.6,-0.0441739999999999
430.8,-0.042324
431.0,-0.040934
431.2,-0.0426239999999999
431.3999999999999,-0.0457309999999999
431.6,-0.0502120000000001
431.8,-0.051703
432.0,-0.05095
432.2,-0.050302
432.3999999999999,-0.050113
432.6,-0.0489459999999999
432.8,-0.0473559999999999
433.0,-0.049689
433.2,-0.051139
433.3999999999999,-0.050413
433.6,-0.050159
433.8,-0.053155
434.0,-0.0533559999999999
434.2,-0.052802
434.3999999999999,-0.050977
434.6,-0.050354
434.8,-0.0482679999999999
435.0,-0.0477590000000001
435.2,-0.047039
435.3999999999999,-0.049223
435.6,-0.0524230000000001
435.8,-0.0536909999999999
436.0,-0.0540039999999999
436.2,-0.0518450000000001
436.3999999999999,-0.0500070000000001
436.6,-0.047533
436.8,-0.048599
437.0,-0.0510539999999999
437.2,-0.0553479999999999
437.3999999999999,-0.0570950000000001
437.6,-0.056448
437.8,-0.0539149999999999
438.0,-0.049533
438.2,-0.047304
438.3999999999999,-0.0464919999999999
438.6,-0.044078
438.8,-0.0401489999999999
439.0,-0.0378640000000001
439.2,-0.0380420000000001
439.3999999999999,-0.0390300000000001
439.6,-0.0442329999999999
439.8,-0.0495019999999999
440.0,-0.053188
440.2,-0.0537069999999999
440.3999999999999,-0.0529129999999999
440.6,-0.0515240000000001
440.8,-0.0488090000000001
441.0,-0.04631
441.2,-0.0439100000000001
441.3999999999999,-0.0447589999999999
441.6,-0.044694
441.8,-0.0438340000000001
442.0,-0.0435119999999999
442.2,-0.046624
442.3999999999999,-0.0448969999999999
442.6,-0.0430140000000001
442.8,-0.045255
443.0,-0.049749
443.2,-0.0521659999999999
443.3999999999999,-0.057387
443.6,-0.0609410000000001
443.8,-0.0613970000000001
444.0,-0.057959
444.2,-0.051924
444.3999999999999,-0.0442420000000001
444.6,-0.0383519999999999
444.8,-0.037433
445.0,-0.0369129999999999
445.2,-0.037433
445.3999999999999,-0.0406889999999999
445.6,-0.045187
445.8,-0.045482
446.0,-0.047071
446.2,-0.04776
446.3999999999999,-0.0450760000000001
446.6,-0.0429019999999999
446.8,-0.0438990000000001
447.0,-0.0458480000000001
447.2,-0.050121
447.3999999999999,-0.0579100000000001
447.6,-0.064602
447.8,-0.069018
448.0,-0.0693669999999999
448.2,-0.0668330000000001
448.3999999999999,-0.062068
448.6,-0.0562789999999999
448.8,-0.0497609999999999
449.0,-0.048094
449.2,-0.048469
449.3999999999999,-0.0487969999999999
449.6,-0.050286
449.8,-0.0536259999999999
450.0,-0.054874
450.2,-0.0554419999999999
450.3999999999999,-0.0542180000000001
450.6,-0.050167
450.8,-0.0459929999999999
451.0,-0.0422310000000001
451.2,-0.0393099999999999
451.3999999999999,-0.038842
451.6,-0.040707
451.8,-0.041951
452.0,-0.04217
452.2,-0.044575
452.3999999999999,-0.047895
452.6,-0.05058
452.8,-0.0548859999999999
453.0,-0.0584630000000001
453.2,-0.0557720000000001
453.3999999999999,-0.051212
453.6,-0.049209
453.8,-0.047439
454.0,-0.0483029999999999
454.2,-0.0523949999999999
454.3999999999999,-0.0582219999999999
454.6,-0.058543
454.8,-0.056534
455.0,-0.052084
455.2,-0.0480929999999999
455.3999999999999,-0.041954
455.6,-0.0394829999999999
455.8,-0.038256
456.0,-0.040351
456.2,-0.0402439999999999
456.3999999999999,-0.0414400000000001
456.6,-0.0445919999999999
456.8,-0.0458610000000001
457.0,-0.042734
457.2,-0.0434750000000001
457.3999999999999,-0.0437990000000001
457.6,-0.042505
457.8,-0.0414480000000001
458.0,-0.042461
458.2,-0.04244
458.3999999999999,-0.043411
458.6,-0.0437309999999999
458.8,-0.0444249999999999
459.0,-0.046659
459.2,-0.0479979999999999
459.3999999999999,-0.0502709999999999
459.6,-0.0516830000000001
459.8,-0.05464
460.0,-0.0516149999999999
460.2,-0.049881
460.3999999999999,-0.046983
460.6,-0.045071
460.8,-0.0410570000000001
461.0,-0.0420180000000001
461.2,-0.0406200000000001
461.3999999999999,-0.04082
461.6,-0.0426349999999999
461.8,-0.044569
462.0,-0.0448779999999999
462.2,-0.0482569999999999
462.3999999999999,-0.0465219999999999
462.6,-0.042245
462.8,-0.0413179999999999
463.0,-0.0413179999999999
463.2,-0.043117
463.3999999999999,-0.0473689999999999
463.6,-0.051088
463.8,-0.052785
464.0,-0.0560960000000001
464.2,-0.0542059999999999
464.3999999999999,-0.0533030000000001
464.6,-0.0544189999999999
464.8,-0.05414
465.0,-0.0526269999999999
465.2,-0.0547550000000001
465.3999999999999,-0.057255
465.6,-0.057808
465.8,-0.058572
466.0,-0.059714
466.2,-0.0588630000000001
466.3999999999999,-0.057142
466.6,-0.0569239999999999
466.8,-0.0582880000000001
467.0,-0.056688
467.2,-0.0561800000000001
467.3999999999999,-0.0571349999999999
467.6,-0.0580359999999999
467.8,-0.0573049999999999
468.0,-0.0585809999999999
468.2,-0.057568
468.3999999999999,-0.054929
468.6,-0.052542
468.8,-0.0526870000000001
469.0,-0.0548349999999999
469.2,-0.0567539999999999
469.3999999999999,-0.0561709999999999
469.6,-0.053938
469.8,-0.051379
470.0,-0.0475560000000001
470.2,-0.045485
470.3999999999999,-0.0458990000000001
470.6,-0.048902
470.8,-0.0500169999999999
471.0,-0.0495940000000001
471.2,-0.0486999999999999
471.3999999999999,-0.048882
471.6,-0.0477860000000001
471.8,-0.045698
472.0,-0.0466489999999999
472.2,-0.0493430000000001
472.3999999999999,-0.048275
472.6,-0.047276
472.8,-0.05007
473.0,-0.0531810000000001
473.2,-0.0544690000000001
473.3999999999999,-0.059061
473.6,-0.0628820000000001
473.8,-0.062303
474.0,-0.0631269999999999
474.2,-0.0586269999999999
474.3999999999999,-0.0538149999999999
474.6,-0.050208
474.8,-0.0516799999999999
475.0,-0.047174
475.2,-0.0488669999999999
475.3999999999999,-0.051482
475.6,-0.0531829999999999
475.8,-0.051271
476.0,-0.0517419999999999
476.2,-0.0513460000000001
476.3999999999999,-0.0516290000000001
476.6,-0.052756
476.8,-0.053541
477.0,-0.053857
477.2,-0.0548710000000001
477.3999999999999,-0.0551639999999999
477.6,-0.0566870000000001
477.8,-0.057889
478.0,-0.057976
478.2,-0.0577700000000001
478.3999999999999,-0.056124
478.6,-0.0534080000000001
478.8,-0.0533300000000001
479.0,-0.054059
479.2,-0.054318
479.3999999999999,-0.053136
479.6,-0.0534860000000001
479.8,-0.0524850000000001
480.0,-0.051968
480.2,-0.049438
480.3999999999999,-0.0501420000000001
480.6,-0.0483280000000001
480.8,-0.0499439999999999
481.0,-0.051703
481.2,-0.0538819999999999
481.3999999999999,-0.0549680000000001
481.6,-0.054524
481.8,-0.050672
482.0,-0.0479549999999999
482.2,-0.0500439999999999
482.3999999999999,-0.0520979999999999
482.6,-0.055266
482.8,-0.0581929999999999
483.0,-0.061334
483.2,-0.0609649999999999
483.3999999999999,-0.0617929999999999
483.6,-0.0613529999999999
483.8,-0.0597769999999999
484.0,-0.056685
484.2,-0.0556499999999999
484.3999999999999,-0.0534110000000001
484.6,-0.0539530000000001
484.8,-0.056319
485.0,-0.059169
485.2,-0.058389
485.3999999999999,-0.058097
485.6,-0.055973
485.8,-0.0534320000000001
486.0,-0.0519750000000001
486.2,-0.0521659999999999
486.3999999999999,-0.0529209999999999
486.6,-0.0538260000000001
486.8,-0.055789
487.0,-0.053331
487.2,-0.0515829999999999
487.3999999999999,-0.049638
487.6,-0.0501199999999999
487.8,-0.0486980000000001
488.0,-0.050383
488.2,-0.0512110000000001
488.3999999999999,-0.050211
488.6,-0.0462880000000001
488.8,-0.045231
489.0,-0.046486
489.2,-0.047622
489.3999999999999,-0.0502
489.6,-0.053037
489.8,-0.0538940000000001
490.0,-0.054659
490.2,-0.057536
490.3999999999999,-0.059172
490.6,-0.059819
490.8,-0.060572
491.0,-0.0603299999999999
491.2,-0.058445
491.3999999999999,-0.055728
491.6,-0.0536750000000001
491.8,-0.0517450000000001
492.0,-0.052119
492.2,-0.054483
492.3999999999999,-0.054621
492.6,-0.055393
492.8,-0.0589669999999999
493.0,-0.059196
493.2,-0.056659
493.3999999999999,-0.058567
493.6,-0.0586740000000001
493.8,-0.0578499999999999
494.0,-0.057166
494.2,-0.0576099999999999
494.3999999999999,-0.0571110000000001
494.6,-0.0602709999999999
494.8,-0.060454
495.0,-0.0581089999999999
495.2,-0.0551600000000001
495.3999999999999,-0.0533399999999999
495.6,-0.049714
495.8,-0.047185
496.0,-0.045357
496.2,-0.0454769999999999
496.3999999999999,-0.047382
496.6,-0.0505269999999999
496.8,-0.053565
497.0,-0.0595130000000001
497.2,-0.0624040000000001
497.3999999999999,-0.061676
497.6,-0.060805
497.8,-0.0596620000000001
498.0,-0.057498
498.2,-0.0564150000000001
498.3999999999999,-0.0569920000000001
498.6,-0.0563329999999999
498.8,-0.0565379999999999
499.0,-0.054238
499.2,-0.0524010000000001
499.3999999999999,-0.0502569999999999
499.6,-0.0490220000000001
499.8,-0.0471289999999999
500.0,-0.046661
500.2,-0.049228
500.3999999999999,-0.051455
500.6,-0.0541059999999999
500.8,-0.0544360000000001
501.0,-0.0526539999999999
501.2,-0.050408
501.3999999999999,-0.049406
501.6,-0.047493
501.8,-0.046953
502.0,-0.0509159999999999
502.2,-0.0508269999999999
502.3999999999999,-0.0494190000000001
502.6,-0.0502819999999999
502.8,-0.0513300000000001
503.0,-0.050394
503.2,-0.050931
503.3999999999999,-0.050008
503.6,-0.048294
503.8,-0.049716
504.0,-0.051112
504.2,-0.050148
504.3999999999999,-0.051752
504.6,-0.05352
504.8,-0.0504409999999999
505.0,-0.048205
505.2,-0.0488859999999999
505.3999999999999,-0.049166
505.6,-0.0484660000000001
505.8,-0.0511950000000001
506.0,-0.053528
506.2,-0.055047
506.3999999999999,-0.0575590000000001
506.6,-0.0580279999999999
506.8,-0.055595
507.0,-0.05421
507.2,-0.0532730000000001
507.3999999999999,-0.051293
507.6,-0.0506980000000001
507.8,-0.050399
508.0,-0.0505170000000001
508.2000000000001,-0.0495350000000001
508.3999999999999,-0.047587
508.5999999999999,-0.0455769999999999
508.8,-0.045903
509.0,-0.0443599999999999
509.2000000000001,-0.0442340000000001
509.3999999999999,-0.0471950000000001
509.5999999999999,-0.0541549999999999
509.8,-0.060686
510.0,-0.066405
510.2000000000001,-0.06912
510.3999999999999,-0.0667980000000001
510.5999999999999,-0.0620990000000001
510.8,-0.0572300000000001
511.0,-0.0545459999999999
511.2000000000001,-0.053274
511.3999999999999,-0.0560279999999999
511.5999999999999,-0.057633
511.8,-0.060284
512.0,-0.0623169999999999
512.2,-0.0649870000000001
512.3999999999999,-0.06352
512.5999999999999,-0.061226
512.8,-0.0567269999999999
513.0,-0.0524519999999999
513.2,-0.0500560000000001
513.3999999999999,-0.0514799999999999
513.5999999999999,-0.0544930000000001
513.8,-0.059511
514.0,-0.060278
514.2,-0.0609630000000001
514.3999999999999,-0.06128
514.5999999999999,-0.059614
514.8,-0.0565679999999999
515.0,-0.0584040000000001
515.2,-0.0591540000000001
515.3999999999999,-0.0596339999999999
515.5999999999999,-0.061347
515.8,-0.063555
516.0,-0.0627170000000001
516.2,-0.058329
516.3999999999999,-0.0535480000000001
516.5999999999999,-0.0513749999999999
516.8,-0.052116
517.0,-0.054694
517.2,-0.0588790000000001
517.3999999999999,-0.0613529999999999
517.5999999999999,-0.0611939999999999
517.8,-0.05834
518.0,-0.0573240000000001
518.2,-0.0572300000000001
518.3999999999999,-0.0590479999999999
518.5999999999999,-0.060534
518.8,-0.063698
519.0,-0.063798
519.2,-0.0640629999999999
519.3999999999999,-0.0647619999999999
519.5999999999999,-0.0646930000000001
519.8,-0.061868
520.0,-0.0614920000000001
520.2,-0.061228
520.3999999999999,-0.060148
520.5999999999999,-0.060394
520.8,-0.0605649999999999
521.0,-0.060667
521.2,-0.0604249999999999
521.3999999999999,-0.0593859999999999
521.5999999999999,-0.055725
521.8,-0.0534400000000001
522.0,-0.0513650000000001
522.2,-0.052068
522.3999999999999,-0.0548010000000001
522.5999999999999,-0.057895
522.8,-0.059056
523.0,-0.0591319999999999
523.2,-0.058256
523.3999999999999,-0.055414
523.5999999999999,-0.055789
523.8,-0.058448
524.0,-0.06061
524.2,-0.0630980000000001
524.3999999999999,-0.066661
524.5999999999999,-0.0663949999999999
524.8,-0.065828
525.0,-0.0663120000000001
525.2,-0.062777
525.3999999999999,-0.058858
525.5999999999999,-0.0572209999999999
525.8,-0.0555179999999999
526.0,-0.052156
526.2,-0.0519309999999999
526.3999999999999,-0.0529300000000001
526.5999999999999,-0.056203
526.8,-0.056683
527.0,-0.0578910000000001
527.2,-0.056472
527.3999999999999,-0.0567060000000001
527.5999999999999,-0.0545599999999999
527.8,-0.0536160000000001
528.0,-0.0532589999999999
528.2,-0.0589129999999999
528.3999999999999,-0.0599959999999999
528.5999999999999,-0.0602340000000001
528.8,-0.0612110000000001
529.0,-0.062238
529.2,-0.0615190000000001
529.3999999999999,-0.0624359999999999
529.5999999999999,-0.063209
529.8,-0.0640009999999999
530.0,-0.063382
530.2,-0.0589699999999999
530.3999999999999,-0.0544850000000001
530.5999999999999,-0.0533129999999999
530.8,-0.0516929999999999
531.0,-0.051104
531.2,-0.054337
531.3999999999999,-0.0593080000000001
531.5999999999999,-0.060985
531.8,-0.0637130000000001
532.0,-0.064211
532.2,-0.06187
532.3999999999999,-0.0566839999999999
532.5999999999999,-0.0529889999999999
532.8,-0.0500150000000001
533.0,-0.049484
533.2,-0.049733
533.3999999999999,-0.0518530000000001
533.5999999999999,-0.05623
533.8,-0.061134
534.0,-0.0633270000000001
534.2,-0.0648680000000001
534.3999999999999,-0.0656210000000001
534.5999999999999,-0.0644820000000001
534.8,-0.060942
535.0,-0.060402
535.2,-0.0599450000000001
535.3999999999999,-0.0580720000000001
535.5999999999999,-0.057817
535.8,-0.058057
536.0,-0.05813
536.2,-0.0583839999999999
536.3999999999999,-0.0620309999999999
536.5999999999999,-0.063037
536.8,-0.063026
537.0,-0.06112
537.2,-0.060788
537.3999999999999,-0.060343
537.5999999999999,-0.0606090000000001
537.8,-0.0625930000000001
538.0,-0.0676419999999999
538.2,-0.071298
538.3999999999999,-0.0694399999999999
538.5999999999999,-0.0674920000000001
538.8,-0.0672730000000001
539.0,-0.063083
539.2,-0.059198
539.3999999999999,-0.0589490000000001
539.5999999999999,-0.0591319999999999
539.8,-0.0569239999999999
540.0,-0.057574
540.2,-0.058418
540.3999999999999,-0.0594510000000001
540.5999999999999,-0.059962
540.8,-0.061328
541.0,-0.062578
541.2,-0.0632209999999999
541.3999999999999,-0.0626539999999999
541.5999999999999,-0.0617910000000001
541.8,-0.0613319999999999
542.0,-0.0585280000000001
542.2,-0.055789
542.3999999999999,-0.0548760000000001
542.5999999999999,-0.0551650000000001
542.8,-0.0556579999999999
543.0,-0.059636
543.2,-0.063377
543.3999999999999,-0.0674380000000001
543.5999999999999,-0.0700290000000001
543.8,-0.0705580000000001
544.0,-0.069452
544.2,-0.0676989999999999
544.3999999999999,-0.0660629999999999
544.5999999999999,-0.0640629999999999
544.8,-0.063989
545.0,-0.063523
545.2,-0.065943
545.3999999999999,-0.0656510000000001
545.5999999999999,-0.066851
545.8,-0.0663930000000001
546.0,-0.066262
546.2,-0.06532
546.3999999999999,-0.0648569999999999
546.5999999999999,-0.063479
546.8,-0.063023
547.0,-0.06502
547.2,-0.0642279999999999
547.3999999999999,-0.0632920000000001
547.5999999999999,-0.061449
547.8,-0.0604949999999999
548.0,-0.0587079999999999
548.2,-0.0594780000000001
548.3999999999999,-0.0607459999999999
548.5999999999999,-0.061914
548.8,-0.061023
549.0,-0.0584949999999999
549.2,-0.057525
549.3999999999999,-0.05806
549.5999999999999,-0.057193
549.8,-0.057898
550.0,-0.0605649999999999
550.2,-0.059944
550.3999999999999,-0.0578720000000001
550.5999999999999,-0.0602070000000001
550.8,-0.0621770000000001
551.0,-0.060516
551.2,-0.0598940000000001
551.3999999999999,-0.0571190000000001
551.5999999999999,-0.054785
551.8,-0.0542530000000001
552.0,-0.0549049999999999
552.2,-0.0548919999999999
552.3999999999999,-0.06061
552.5999999999999,-0.0640309999999999
552.8,-0.0658259999999999
553.0,-0.0665120000000001
553.2,-0.068157
553.3999999999999,-0.065449
553.5999999999999,-0.0649999999999999
553.8,-0.064718
554.0,-0.0657909999999999
554.2,-0.0659389999999999
554.3999999999999,-0.0662009999999999
554.5999999999999,-0.0654970000000001
554.8,-0.0593879999999999
555.0,-0.054464
555.2,-0.0499690000000001
555.3999999999999,-0.0501690000000001
555.5999999999999,-0.048909
555.8,-0.0522960000000001
556.0,-0.0539739999999999
556.2,-0.0576020000000001
556.3999999999999,-0.055603
556.5999999999999,-0.053601
556.8,-0.055233
557.0,-0.0573319999999999
557.2,-0.0577879999999999
557.3999999999999,-0.0626329999999999
557.5999999999999,-0.068286
557.8,-0.070489
558.0,-0.0748660000000001
558.2,-0.076208
558.3999999999999,-0.075776
558.5999999999999,-0.0742180000000001
558.8,-0.0733509999999999
559.0,-0.0709729999999999
559.2,-0.0699039999999999
559.3999999999999,-0.066969
559.5999999999999,-0.0645999999999999
559.8,-0.062659
560.0,-0.0602070000000001
560.2,-0.058589
560.3999999999999,-0.057425
560.5999999999999,-0.0599450000000001
560.8,-0.060521
561.0,-0.0620199999999999
561.2,-0.065158
561.3999999999999,-0.0680020000000001
561.5999999999999,-0.066624
561.8,-0.064726
562.0,-0.0620519999999999
562.2,-0.0594829999999999
562.3999999999999,-0.0581800000000001
562.5999999999999,-0.057781
562.8,-0.0588049999999999
563.0,-0.0604089999999999
563.2,-0.0611079999999999
563.3999999999999,-0.0599340000000001
563.5999999999999,-0.060883
563.8,-0.061822
564.0,-0.061277
564.2,-0.058891
564.3999999999999,-0.0607950000000001
564.5999999999999,-0.06105
564.8,-0.063817
565.0,-0.063663
565.2,-0.063682
565.3999999999999,-0.061949
565.5999999999999,-0.0587429999999999
565.8,-0.0544949999999999
566.0,-0.0558629999999999
566.2,-0.0590889999999999
566.3999999999999,-0.061755
566.5999999999999,-0.0648440000000001
566.8,-0.0678560000000001
567.0,-0.069379
567.2,-0.0710980000000001
567.3999999999999,-0.072502
567.5999999999999,-0.074451
567.8,-0.0759259999999999
568.0,-0.0746230000000001
568.2,-0.07159
568.3999999999999,-0.0679689999999999
568.5999999999999,-0.0661579999999999
568.8,-0.0620439999999999
569.0,-0.0610749999999999
569.2,-0.0594479999999999
569.3999999999999,-0.058491
569.5999999999999,-0.057957
569.8,-0.0612589999999999
570.0,-0.0636879999999999
570.1999999999998,-0.0655419999999999
570.3999999999999,-0.0679670000000001
570.5999999999999,-0.0662850000000001
570.8,-0.064308
571.0,-0.0634590000000001
571.1999999999998,-0.0647390000000001
571.3999999999999,-0.065523
571.5999999999999,-0.06857
571.8,-0.068608
572.0,-0.067576
572.1999999999998,-0.0672319999999999
572.3999999999999,-0.0676369999999999
572.5999999999999,-0.0669090000000001
572.8,-0.066564
573.0,-0.065773
573.1999999999998,-0.0645040000000001
573.3999999999999,-0.061056
573.5999999999999,-0.0583420000000001
573.8,-0.057949
574.0,-0.059628
574.1999999999998,-0.0612449999999999
574.3999999999999,-0.062988
574.5999999999999,-0.0653410000000001
574.8,-0.0660210000000001
575.0,-0.061809
575.1999999999998,-0.059952
575.3999999999999,-0.0624379999999999
575.5999999999999,-0.0642929999999999
575.8,-0.0630950000000001
576.0,-0.065309
576.1999999999998,-0.0665740000000001
576.3999999999999,-0.0646310000000001
576.5999999999999,-0.0621089999999999
576.8,-0.062022
577.0,-0.063272
577.1999999999998,-0.0635460000000001
577.3999999999999,-0.0631840000000001
577.5999999999999,-0.0639180000000001
577.8,-0.0667120000000001
578.0,-0.0685900000000001
578.1999999999998,-0.070008
578.3999999999999,-0.0716179999999999
578.5999999999999,-0.07308
578.8,-0.073182
579.0,-0.0726150000000001
579.1999999999998,-0.0739069999999999
579.3999999999999,-0.073587
579.5999999999999,-0.0730509999999999
579.8,-0.07193
580.0,-0.0703120000000001
580.1999999999998,-0.0673989999999999
580.3999999999999,-0.066127
580.5999999999999,-0.065854
580.8,-0.0655540000000001
581.0,-0.065309
581.1999999999998,-0.062659
581.3999999999999,-0.0631730000000001
581.5999999999999,-0.0661450000000001
581.8,-0.069207
582.0,-0.0700149999999999
582.1999999999998,-0.073587
582.3999999999999,-0.0738499999999999
582.5999999999999,-0.070745
582.8,-0.0672730000000001
583.0,-0.0658720000000001
583.1999999999998,-0.0622469999999999
583.3999999999999,-0.06013
583.5999999999999,-0.057592
583.8,-0.05556
584.0,-0.057633
584.1999999999998,-0.0604709999999999
584.3999999999999,-0.062259
584.5999999999999,-0.0636540000000001
584.8,-0.0671380000000001
585.0,-0.067582
585.1999999999998,-0.066194
585.3999999999999,-0.0647029999999999
585.5999999999999,-0.0633970000000001
585.8,-0.0622150000000001
586.0,-0.0607569999999999
586.1999999999998,-0.059096
586.3999999999999,-0.0592479999999999
586.5999999999999,-0.0612019999999999
586.8,-0.0615959999999999
587.0,-0.060616
587.1999999999998,-0.061962
587.3999999999999,-0.0621899999999999
587.5999999999999,-0.0636609999999999
587.8,-0.0655730000000001
588.0,-0.0665169999999999
588.1999999999998,-0.066443
588.3999999999999,-0.068653
588.5999999999999,-0.0695160000000001
588.8,-0.068359
589.0,-0.0673920000000001
589.1999999999998,-0.067028
589.3999999999999,-0.066597
589.5999999999999,-0.0674799999999999
589.8,-0.068294
590.0,-0.0689220000000001
590.1999999999998,-0.0690600000000001
590.3999999999999,-0.069245
590.5999999999999,-0.068715
590.8,-0.068867
591.0,-0.07216
591.1999999999998,-0.073272
591.3999999999999,-0.070993
591.5999999999999,-0.065336
591.8,-0.061976
592.0,-0.0570509999999999
592.1999999999998,-0.0552760000000001
592.3999999999999,-0.053482
592.5999999999999,-0.0567809999999999
592.8,-0.0607889999999999
593.0,-0.0631140000000001
593.1999999999998,-0.066106
593.3999999999999,-0.070273
593.5999999999999,-0.0696510000000001
593.8,-0.0664850000000001
594.0,-0.0661800000000001
594.1999999999998,-0.066923
594.3999999999999,-0.067228
594.5999999999999,-0.06999
594.8,-0.0721469999999999
595.0,-0.0746630000000001
595.1999999999998,-0.0747740000000001
595.3999999999999,-0.0766690000000001
