Time (s),Shift (nm)
0.0,0.0
0.1999999999999886,0.001513
0.4000000000000341,0.0020489999999999
0.6000000000000227,0.001729
0.8000000000000114,0.0015389999999999
1.0,0.0035259999999999
1.1999999999999886,0.005397
1.400000000000034,0.0047759999999998
1.6000000000000227,0.0033199999999999
1.8000000000000114,0.0019789999999999
2.0,0.0016469999999999
2.1999999999999886,0.0016769999999999
2.400000000000034,0.003417
2.6000000000000227,0.004834
2.800000000000012,0.0063729999999999
3.0,0.0054320000000001
3.1999999999999886,0.0032430000000001
3.400000000000034,0.0027399999999999
3.6000000000000227,0.003031
3.8000000000000114,0.0042359999999999
4.0,0.005559
4.199999999999989,0.0064569999999999
4.400000000000034,0.0056599999999999
4.600000000000023,0.0056179999999999
4.800000000000011,0.005219
5.0,0.0049669999999999
5.199999999999989,0.0060379999999999
5.400000000000034,0.0083059999999999
5.600000000000023,0.0091769999999999
5.800000000000011,0.0098199999999999
6.0,0.0095719999999999
6.199999999999989,0.0094579999999999
6.400000000000034,0.008952
6.600000000000023,0.0089259999999999
6.800000000000011,0.0094119999999999
7.0,0.0101759999999999
7.199999999999989,0.0101459999999999
7.400000000000034,0.009058
7.600000000000023,0.0091799999999999
7.800000000000011,0.0080279999999999
8.0,0.0076879999999999
8.199999999999989,0.0061849999999998
8.400000000000034,0.0052509999999998
8.600000000000023,0.0046489999999999
8.800000000000011,0.004423
9.0,0.0038059999999999
9.199999999999989,0.0040789999999999
9.400000000000034,0.0042819999999998
9.600000000000025,0.0052080000000001
9.800000000000011,0.0060849999999998
10.0,0.006426
10.199999999999989,0.0049259999999999
10.400000000000034,0.0050269999999998
10.600000000000025,0.0039709999999999
10.800000000000011,0.0039819999999999
11.0,0.004364
11.199999999999989,0.0049449999999999
11.400000000000034,0.005608
11.600000000000025,0.0068299999999998
11.800000000000011,0.0088479999999999
12.0,0.009581
12.199999999999989,0.01242
12.400000000000034,0.0130069999999999
12.600000000000025,0.0115119999999999
12.800000000000011,0.0078
13.0,0.006269
13.199999999999989,0.006088
13.400000000000034,0.006869
13.600000000000025,0.009938
13.800000000000011,0.0132449999999999
14.0,0.01601
14.199999999999989,0.016318
14.400000000000034,0.016358
14.600000000000025,0.0154369999999999
14.800000000000011,0.0134479999999999
15.0,0.0114549999999999
15.199999999999989,0.010156
15.400000000000034,0.009328
15.600000000000025,0.0080489999999999
15.800000000000011,0.0075400000000001
16.0,0.0076279999999999
16.19999999999999,0.007681
16.400000000000034,0.0071619999999998
16.600000000000023,0.0076499999999999
16.80000000000001,0.009559
17.0,0.010715
17.19999999999999,0.010124
17.400000000000034,0.009255
17.600000000000023,0.0080679999999999
17.80000000000001,0.0065999999999999
18.0,0.004815
18.19999999999999,0.0034339999999999
18.400000000000038,0.0023649999999999
18.600000000000023,0.0016799999999999
18.80000000000001,0.0001009999999999
19.0,-0.0006060000000001
19.19999999999999,0.001589
19.400000000000038,0.0029959999999999
19.600000000000023,0.0058489999999999
19.80000000000001,0.0084709999999998
20.0,0.009999
20.19999999999999,0.0093929999999999
20.400000000000038,0.009932
20.600000000000023,0.0098819999999999
20.80000000000001,0.0081189999999999
21.0,0.0068779999999999
21.19999999999999,0.0057229999999999
21.400000000000038,0.005729
21.600000000000023,0.0030529999999999
21.80000000000001,0.002054
22.0,-0.0006060000000001
22.19999999999999,-5.000000000032756e-06
22.400000000000038,0.000904
22.600000000000023,0.002736
22.80000000000001,0.003311
23.0,0.0033929999999999
23.19999999999999,0.0009209999999999
23.400000000000038,-0.0020759999999999
23.600000000000023,-0.002383
23.80000000000001,-0.002366
24.0,-0.001727
24.19999999999999,-0.0007379999999999
24.400000000000038,0.002509
24.600000000000023,0.0032179999999999
24.80000000000001,0.004493
25.0,0.006593
25.19999999999999,0.008952
25.400000000000038,0.0098759999999999
25.600000000000023,0.0094469999999999
25.80000000000001,0.0091229999999999
26.0,0.006788
26.19999999999999,0.0063029999999999
26.400000000000038,0.003835
26.600000000000023,0.003085
26.80000000000001,0.0019249999999999
27.0,0.0047839999999998
27.19999999999999,0.003397
27.400000000000038,0.00133
27.600000000000023,9.6000000000096e-05
27.80000000000001,0.0013819999999999
28.0,0.001222
28.19999999999999,0.0022009999999998
28.400000000000038,0.0042120000000001
28.600000000000023,0.0061789999999999
28.80000000000001,0.007616
29.0,0.00835
29.19999999999999,0.0090209999999999
29.400000000000038,0.0101899999999999
29.600000000000023,0.009597
29.80000000000001,0.007797
30.0,0.0071419999999999
30.19999999999999,0.0075199999999999
30.400000000000038,0.0089379999999998
30.600000000000023,0.010518
30.80000000000001,0.011481
31.0,0.0114609999999999
31.19999999999999,0.0099519999999999
31.400000000000038,0.0066569999999999
31.600000000000023,0.004569
31.80000000000001,0.004059
32.0,0.0038469999999999
32.19999999999999,0.004777
32.400000000000034,0.0053739999999999
32.60000000000002,0.006
32.80000000000001,0.0051319999999999
33.0,0.005271
33.19999999999999,0.0060439999999999
33.400000000000034,0.0065399999999999
33.60000000000002,0.0060249999999999
33.80000000000001,0.005713
34.0,0.0058879999999998
34.19999999999999,0.004976
34.400000000000034,0.0042329999999999
34.60000000000002,0.0029859999999999
34.80000000000001,0.00289
35.0,0.00241
35.19999999999999,0.003254
35.400000000000034,0.005478
35.60000000000002,0.0069589999999999
35.80000000000001,0.007811
36.0,0.007657
36.19999999999999,0.008499
36.400000000000034,0.0070399999999999
36.60000000000002,0.0057989999999998
36.80000000000001,0.0046079999999999
37.0,0.005079
37.19999999999999,0.0032039999999999
37.400000000000034,0.0032499999999999
37.60000000000002,0.0047159999999999
37.80000000000001,0.0073499999999999
38.0,0.00706
38.19999999999999,0.007335
38.400000000000034,0.006717
38.60000000000002,0.0063999999999999
38.80000000000001,0.0047809999999999
39.0,0.003935
39.19999999999999,0.0030689999999999
39.400000000000034,0.003003
39.60000000000002,0.0040690000000001
39.80000000000001,0.0054739999999999
40.0,0.006866
40.19999999999999,0.008601
40.400000000000034,0.009756
40.60000000000002,0.0098869999999999
40.80000000000001,0.009835
41.0,0.0099899999999999
41.19999999999999,0.0071939999999999
41.400000000000034,0.0030259999999999
41.60000000000002,-0.0019469999999999
41.80000000000001,-0.0050289999999999
42.0,-0.0070539999999998
42.19999999999999,-0.0062869999999999
42.400000000000034,-0.002677
42.60000000000002,0.003209
42.80000000000001,0.0066109999999999
43.0,0.0082949999999999
43.19999999999999,0.0080459999999999
43.400000000000034,0.0074579999999999
43.60000000000002,0.004191
43.80000000000001,0.0019199999999999
44.0,-0.001074
44.19999999999999,-0.000293
44.400000000000034,-0.000855
44.60000000000002,-0.002124
44.80000000000001,-0.003041
45.0,-0.000577
45.19999999999999,0.001702
45.400000000000034,0.003308
45.60000000000002,0.0056199999999999
45.80000000000001,0.006226
46.0,0.005284
46.19999999999999,0.0033229999999999
46.400000000000034,0.003479
46.60000000000002,0.003471
46.80000000000001,0.00425
47.0,0.0060499999999998
47.19999999999999,0.0074799999999999
47.400000000000034,0.007716
47.60000000000002,0.0068429999999999
47.80000000000001,0.006526
48.0,0.006418
48.19999999999999,0.005519
48.400000000000034,0.0057989999999998
48.60000000000002,0.006879
48.80000000000001,0.007527
49.0,0.006172
49.19999999999999,0.0059329999999999
49.400000000000034,0.006339
49.60000000000002,0.009033
49.80000000000001,0.0094449999999999
50.0,0.0078499999999999
50.19999999999999,0.004596
50.400000000000034,-2.300000000010627e-05
50.60000000000002,-0.0065319999999999
50.80000000000001,-0.007891
51.0,-0.0067379999999999
51.19999999999999,-0.0048559999999999
51.400000000000034,-0.003157
51.60000000000002,0.0004729999999999
51.80000000000001,0.00116
52.0,0.0006589999999999
52.19999999999999,0.0010289999999999
52.400000000000034,0.001049
52.60000000000002,0.0028299999999998
52.80000000000001,0.0042299999999999
53.0,0.006698
53.19999999999999,0.006134
53.400000000000034,0.006007
53.60000000000002,0.005119
53.80000000000001,0.0054149999999999
54.0,0.00533
54.19999999999999,0.007649
54.400000000000034,0.009894
54.60000000000002,0.007668
54.80000000000001,0.005136
55.0,0.002124
55.19999999999999,0.0025669999999999
55.400000000000034,0.0012559999999999
55.60000000000002,0.0020629999999999
55.80000000000001,0.00055
56.0,-0.0006319999999999
56.19999999999999,-0.0041439999999999
56.400000000000034,-0.0069069999999999
56.60000000000002,-0.0087109999999999
56.80000000000001,-0.006863
57.0,-0.004418
57.19999999999999,-0.0035259999999999
57.400000000000034,-0.001597
57.60000000000002,0.0005669999999999
57.80000000000001,0.000569
58.0,0.002715
58.19999999999999,0.0047719999999999
58.400000000000034,0.0086489999999999
58.60000000000002,0.0111349999999998
58.80000000000001,0.0119689999999998
59.0,0.0088399999999999
59.19999999999999,0.007085
59.400000000000034,0.004313
59.60000000000002,0.003525
59.80000000000001,0.0045539999999999
60.0,0.006528
60.19999999999999,0.0086349999999999
60.400000000000034,0.011443
60.60000000000002,0.0098309999999999
60.80000000000001,0.007722
61.0,0.0064139999999999
61.19999999999999,0.006051
61.400000000000034,0.003662
61.60000000000002,0.0037179999999998
61.80000000000001,0.0051079999999998
62.00000000000006,0.0071859999999999
62.19999999999999,0.0080739999999999
62.400000000000034,0.007031
62.599999999999966,0.0055829999999998
62.80000000000001,0.003503
63.00000000000006,2.6000000000081517e-05
63.19999999999999,-0.0044889999999999
63.400000000000034,-0.00553
63.599999999999966,-0.0026079999999999
63.80000000000001,0.0001850000000001
64.00000000000006,0.0042390000000001
64.19999999999999,0.006671
64.40000000000003,0.0077069999999999
64.59999999999997,0.0042569999999999
64.80000000000001,0.002399
65.00000000000006,0.001098
65.19999999999999,0.0036229999999999
65.40000000000003,0.005327
65.59999999999997,0.00827
65.80000000000001,0.010369
66.00000000000006,0.0105599999999999
66.19999999999999,0.0070619999999999
66.40000000000003,0.0047680000000001
66.59999999999997,0.004855
66.80000000000001,0.004135
67.00000000000006,0.0039219999999999
67.19999999999999,0.0055989999999999
67.40000000000003,0.00689
67.59999999999997,0.005595
67.80000000000001,0.0054179999999999
68.00000000000006,0.0057659999999999
68.19999999999999,0.0055659999999999
68.40000000000003,0.0018569999999999
68.59999999999997,-0.001335
68.80000000000001,-0.0049619999999999
69.00000000000006,-0.0065159999999999
69.19999999999999,-0.0060979999999999
69.40000000000003,-0.0008019999999999
69.59999999999997,0.0040029999999999
69.80000000000001,0.0082809999999999
70.00000000000006,0.011322
70.19999999999999,0.012361
70.40000000000003,0.0109019999999999
70.59999999999997,0.00984
70.80000000000001,0.0071000000000001
71.00000000000006,0.001973
71.19999999999999,-0.002453
71.40000000000003,-0.005856
71.59999999999997,-0.008237
71.80000000000001,-0.0071959999999999
72.00000000000006,-0.0048529999999999
72.19999999999999,-0.0022789999999999
72.40000000000003,0.0001310000000001
72.59999999999997,0.000998
72.80000000000001,8.999999999992347e-05
73.00000000000006,-0.000143
73.19999999999999,0.0007589999999999
73.40000000000003,0.001589
73.59999999999997,0.0040949999999999
73.80000000000001,0.0055
74.00000000000006,0.006796
74.19999999999999,0.006259
74.40000000000003,0.005786
74.59999999999997,0.0027459999999999
74.80000000000001,0.001141
75.00000000000006,0.000564
75.19999999999999,-0.0008969999999999
75.40000000000003,-0.0034199999999999
75.59999999999997,-0.0044900000000001
75.80000000000001,-0.003648
76.00000000000006,-0.0035289999999998
76.19999999999999,-0.0017469999999999
76.40000000000003,0.00214
76.59999999999997,0.0046209999999999
76.80000000000001,0.0049369999999999
77.00000000000006,0.00269
77.19999999999999,0.0008079999999999
77.40000000000003,-0.0018899999999999
77.59999999999997,-0.001505
77.80000000000001,-0.0011529999999999
78.00000000000006,0.0013510000000001
78.19999999999999,0.0013339999999999
78.40000000000003,0.000248
78.59999999999997,-0.0017869999999999
78.80000000000001,-0.0027569999999998
79.00000000000006,-0.0027349999999999
79.19999999999999,-0.0024980000000001
79.40000000000003,-0.001549
79.59999999999997,-0.0024409999999999
79.80000000000001,-0.0029639999999999
80.00000000000006,-0.0059880000000001
80.19999999999999,-0.008045
80.40000000000003,-0.0083779999999999
80.59999999999997,-0.0051989999999999
80.80000000000001,-0.0024599999999999
81.00000000000006,0.0005129999999999
81.19999999999999,0.002685
81.40000000000003,0.0051099999999999
81.59999999999997,0.0045219999999999
81.80000000000001,0.002677
82.00000000000006,0.001182
82.19999999999999,0.0020599999999999
82.40000000000003,0.000334
82.59999999999997,-0.0006870000000001
82.80000000000001,-0.0031209999999999
83.00000000000006,-0.0032589999999999
83.19999999999999,-0.0058359999999999
83.40000000000003,-0.0061789999999999
83.59999999999997,-0.005616
83.80000000000001,-0.003492
84.00000000000006,-0.00329
84.19999999999999,-0.0011339999999999
84.40000000000003,0.0009259999999999
84.59999999999997,-0.0001249999999999
84.80000000000001,-0.0023379999999999
85.00000000000006,-0.003365
85.19999999999999,-0.0025059999999998
85.40000000000003,-0.0034559999999999
85.59999999999997,-0.001295
85.80000000000001,0.0017259999999998
86.00000000000006,0.0037549999999999
86.19999999999999,0.003444
86.40000000000003,0.0028760000000001
86.59999999999997,0.0002429999999999
86.80000000000001,-0.0026950000000001
87.00000000000006,-0.0053819999999999
87.19999999999999,-0.0063459999999999
87.40000000000003,-0.002947
87.59999999999997,0.0006289999999999
87.80000000000001,0.002094
88.00000000000006,0.002439
88.19999999999999,0.0012579999999999
88.40000000000003,-0.0024079999999999
88.59999999999997,-0.0044619999999999
88.80000000000001,-0.004148
89.00000000000006,-0.002709
89.19999999999999,-0.0025939999999999
89.40000000000003,-0.0030399999999999
89.59999999999997,-0.004833
89.80000000000001,-0.004736
90.00000000000006,-0.002593
90.2,0.00011
90.40000000000003,0.0010509999999999
90.59999999999997,0.000294
90.8,-0.0012119999999999
91.00000000000006,-0.0030639999999999
91.2,-0.0045029999999999
91.40000000000003,-0.0031289999999999
91.59999999999997,0.001316
91.8,0.0028799999999999
92.00000000000006,0.0027639999999999
92.2,0.001165
92.40000000000003,-0.000242
92.59999999999997,-0.0034019999999999
92.8,-0.0038499999999999
93.00000000000006,-0.0042200000000001
93.2,-0.0010939999999999
93.40000000000003,-0.000137
93.59999999999997,0.0012119999999999
93.8,0.0009989999999999
94.00000000000006,-0.0002200000000001
94.2,-0.0019029999999999
94.40000000000003,-0.003074
94.59999999999997,-0.0037709999999999
94.8,-0.0041089999999999
95.00000000000006,-0.003273
95.2,-0.004
95.40000000000003,-0.0030019999999999
95.59999999999997,-0.0027209999999999
95.8,-0.0030399999999999
96.00000000000006,-0.002931
96.2,-0.0035719999999999
96.40000000000003,-0.0059949999999999
96.59999999999997,-0.006029
96.8,-0.003201
97.00000000000006,0.000734
97.2,0.0035099999999999
97.40000000000003,0.0049989999999999
97.59999999999997,0.004054
97.8,0.0046699999999999
98.00000000000006,0.002115
98.2,0.0018089999999999
98.40000000000003,0.0019109999999999
98.59999999999997,0.002806
98.8,0.000677
99.00000000000006,-0.0010810000000001
99.2,-0.0035449999999999
99.40000000000003,-0.0037409999999999
99.59999999999997,-0.0048999999999999
99.8,-0.0055089999999999
100.00000000000006,-0.005497
100.2,-0.0042819999999998
100.40000000000003,-0.0045980000000001
100.59999999999997,-0.0050159999999999
100.8,-0.004048
101.00000000000006,-0.0028760000000001
101.2,-0.0034849999999999
101.40000000000003,-0.004671
101.59999999999997,-0.0038899999999999
101.8,-0.005878
102.00000000000006,-0.0073240000000001
102.2,-0.0058409999999999
102.40000000000003,-0.0050419999999999
102.59999999999997,-0.0053669999999999
102.8,-0.0068049999999999
103.00000000000006,-0.0071209999999999
103.2,-0.0085090000000001
103.40000000000003,-0.006537
103.59999999999997,-0.004134
103.8,-0.0006289999999999
104.00000000000006,-4.099999999995774e-05
104.2,-9.700000000001374e-05
104.40000000000003,-0.001338
104.59999999999997,-0.004251
104.8,-0.005047
105.00000000000006,-0.0059849999999999
105.2,-0.0069539999999999
105.40000000000003,-0.0086289999999999
105.59999999999997,-0.007117
105.8,-0.006291
106.00000000000006,-0.004135
106.2,-0.002833
106.40000000000003,-0.0028019999999999
106.59999999999997,-0.003532
106.8,-0.0035629999999999
107.00000000000006,-0.0046060000000001
107.2,-0.004707
107.40000000000003,-0.0028619999999999
107.59999999999997,-0.0017279999999999
107.8,-0.0028259999999999
108.00000000000006,-0.0036039999999999
108.2,-0.0045669999999999
108.40000000000003,-0.0049609999999999
108.59999999999997,-0.005282
108.8,-0.0049669999999999
109.00000000000006,-0.005309
109.2,-0.00448
109.40000000000003,-0.003009
109.59999999999997,-0.0012479999999999
109.8,-0.001101
110.00000000000006,-0.001681
110.2,-0.002801
110.40000000000003,-0.0069829999999999
110.59999999999997,-0.009697
110.8,-0.009781
111.00000000000006,-0.0079340000000001
111.2,-0.0078450000000001
111.40000000000003,-0.006831
111.59999999999997,-0.0064360000000001
111.8,-0.004148
112.00000000000006,-0.0025319999999999
112.2,-0.002288
112.40000000000003,-0.000779
112.59999999999997,-0.0004429999999999
112.8,-0.0025239999999999
113.00000000000006,-0.0020379999999999
113.2,0.0015019999999998
113.40000000000003,0.0029889999999999
113.59999999999997,0.003395
113.8,0.003535
114.00000000000006,0.0015499999999999
114.2,-0.001751
114.40000000000003,-0.002625
114.59999999999997,-0.0007140000000001
114.8,8.099999999999774e-05
115.00000000000006,0.0006749999999999
115.2,0.001414
115.40000000000003,0.0011639999999999
115.59999999999997,-0.0010259999999999
115.8,-0.0028429999999999
116.00000000000006,-0.001748
116.2,-6.799999999995698e-05
116.40000000000003,0.001705
116.59999999999997,0.0021169999999999
116.8,0.001055
117.00000000000006,-0.004717
117.2,-0.0082649999999999
117.40000000000003,-0.0096830000000001
117.59999999999997,-0.0099169999999999
117.8,-0.0099359999999999
118.00000000000006,-0.0077229999999999
118.2,-0.0063999999999999
118.40000000000003,-0.00662
118.59999999999997,-0.0080249999999999
118.8,-0.0057899999999999
119.00000000000006,-0.0021199999999998
119.2,-3.500000000000725e-05
119.40000000000003,0.00032
119.59999999999997,0.0005299999999999
119.8,-0.00062
120.00000000000006,-0.003209
120.2,-0.005325
120.40000000000003,-0.0067129999999999
120.59999999999997,-0.0063269999999999
120.8,-0.006866
121.00000000000006,-0.006307
121.2,-0.0055089999999999
121.40000000000003,-0.0040739999999999
121.59999999999997,-0.004812
121.8,-0.0065569999999999
122.00000000000006,-0.009017
122.2,-0.009627
122.40000000000003,-0.0099880000000001
122.59999999999997,-0.006636
122.8,4.699999999990823e-05
123.00000000000006,0.00611
123.2,0.007009
123.40000000000003,0.00539
123.59999999999997,0.001524
123.8,-0.002626
124.00000000000006,-0.005514
124.2,-0.005282
124.40000000000003,-0.0030000000000001
124.59999999999997,-0.001211
124.8,-0.002393
125.00000000000006,-0.0048049999999999
125.2,-0.0079359999999999
125.40000000000003,-0.0110110000000001
125.59999999999997,-0.0119
125.8,-0.0108509999999999
126.00000000000006,-0.0104759999999999
126.2,-0.0092419999999999
126.40000000000003,-0.0073
126.59999999999997,-0.007522
126.8,-0.0080819999999999
127.00000000000006,-0.0071339999999999
127.2,-0.0069369999999999
127.40000000000003,-0.0097469999999999
127.59999999999997,-0.0107870000000001
127.8,-0.009252
128.00000000000006,-0.008269
128.2,-0.007908
128.40000000000003,-0.005074
128.59999999999997,-0.0021279999999999
128.8,-0.002774
129.00000000000006,-0.0035769999999999
129.2,-0.003754
129.40000000000003,-0.0020770000000001
129.59999999999997,-1.5000000000098268e-05
129.8,0.00373
130.00000000000006,0.0065539999999999
130.2,0.0079139999999999
130.40000000000003,0.006032
130.59999999999997,0.002825
130.8,-0.00136
131.00000000000006,-0.003392
131.2,-0.00516
131.40000000000003,-0.0059439999999999
131.59999999999997,-0.007392
131.8,-0.00591
132.00000000000006,-0.005897
132.2,-0.00398
132.40000000000003,-0.001009
132.59999999999997,0.003505
132.8,0.0047509999999999
133.00000000000006,0.002828
133.2,-0.0009859999999999
133.40000000000003,-0.0046559999999999
133.59999999999997,-0.008326
133.8,-0.010985
134.00000000000006,-0.0093639999999999
134.2,-0.0048729999999999
134.40000000000003,-0.003195
134.59999999999997,-0.0026269999999999
134.8,-0.002418
135.00000000000006,-0.0002489999999999
135.2,5.999999999950489e-06
135.40000000000003,0.002204
135.59999999999997,0.0044429999999999
135.8,0.006825
136.00000000000006,0.006024
136.2,0.004914
136.40000000000003,0.0026600000000001
136.59999999999997,0.000542
136.8,-0.001732
137.00000000000006,-0.0049559999999999
137.2,-0.006855
137.40000000000003,-0.008901
137.59999999999997,-0.010256
137.8,-0.011584
138.00000000000006,-0.0105319999999999
138.2,-0.008407
138.40000000000003,-0.004518
138.59999999999997,-0.0028319999999999
138.8,-0.002553
139.00000000000006,-0.002069
139.2,-0.002882
139.40000000000003,-0.003778
139.59999999999997,-0.0049799999999999
139.8,-0.004807
140.00000000000006,-0.005926
140.2,-0.005144
140.40000000000003,-0.005689
140.59999999999997,-0.0042679999999999
140.8,-0.0040869999999999
141.00000000000006,-0.0038419999999999
141.2,-0.004035
141.40000000000003,-0.003722
141.59999999999997,-0.002645
141.8,-0.002367
142.00000000000006,-0.0019549999999999
142.2,-0.002623
142.40000000000003,-0.0049699999999999
142.59999999999997,-0.0066409999999998
142.8,-0.0049209999999999
143.00000000000006,-0.0023519999999999
143.2,-0.0020459999999999
143.40000000000003,0.0003899999999998
143.59999999999997,0.0011399999999999
143.8,0.001184
144.00000000000006,-0.0006759999999998
144.2,-0.0015709999999999
144.40000000000003,-0.004256
144.59999999999997,-0.0059629999999999
144.8,-0.0055469999999999
145.00000000000006,-0.0046489999999999
145.2,-0.0039469999999999
145.40000000000003,-0.0003679999999999
145.59999999999997,0.002005
145.8,0.0018339999999998
146.00000000000006,0.0020839999999999
146.2,0.0028220000000001
146.40000000000003,-0.0003979999999998
146.59999999999997,-0.0023729999999999
146.8,-0.003022
147.00000000000006,-0.0037439999999999
147.2,-0.0051989999999999
147.40000000000003,-0.003802
147.59999999999997,-0.0039679999999999
147.8,-0.0030270000000001
148.00000000000006,-0.0040469999999999
148.2,-0.005468
148.40000000000003,-0.005087
148.59999999999997,-0.002288
148.8,-0.0017739999999999
149.00000000000006,5.999999999994898e-05
149.2,0.0012099999999999
149.40000000000003,-0.000207
149.59999999999997,-0.0026939999999999
149.8,-0.0046829999999999
150.00000000000006,-0.005675
150.2,-0.0031149999999999
150.40000000000003,2.199999999996649e-05
150.59999999999997,0.001948
150.8,0.001737
151.00000000000006,-2.199999999996649e-05
151.2,-0.003095
151.40000000000003,-0.006151
151.59999999999997,-0.0085459999999999
151.8,-0.0086250000000001
152.00000000000006,-0.007063
152.2,-0.005665
152.40000000000003,-0.004609
152.59999999999997,-0.003649
152.8,-0.0060690000000001
153.00000000000006,-0.007751
153.2,-0.009022
153.40000000000003,-0.007025
153.59999999999997,-0.005808
153.8,-0.003241
154.00000000000006,-0.000132
154.2,0.0034359999999999
154.40000000000003,0.0052959999999999
154.59999999999997,0.0059409999999999
154.8,0.00479
155.00000000000006,0.0006829999999999
155.2,-0.0033780000000001
155.40000000000003,-0.0064109999999999
155.59999999999997,-0.00658
155.8,-0.0034590000000001
156.00000000000006,-0.0006219999999999
156.2,0.0009049999999999
156.40000000000003,-0.000345
156.59999999999997,-0.0039249999999999
156.8,-0.0069639999999999
157.00000000000006,-0.006582
157.2,-0.0058119999999999
157.40000000000003,-0.0055670000000001
157.59999999999997,-0.00262
157.8,0.0001649999999999
158.00000000000006,0.000785
158.2,0.000815
158.40000000000003,0.0017659999999999
158.59999999999997,6.599999999989947e-05
158.8,-0.0015560000000001
159.00000000000006,-0.0032099999999999
159.2,-0.004094
159.40000000000003,-0.0075940000000001
159.59999999999997,-0.0096279999999999
159.8,-0.0125710000000001
160.00000000000006,-0.0146269999999999
160.2,-0.0142009999999999
160.40000000000003,-0.0113959999999999
160.59999999999997,-0.008423
160.8,-0.00425
161.00000000000006,2.900000000005676e-05
161.2,0.0016609999999999
161.40000000000003,0.0032389999999999
161.59999999999997,0.0020229999999998
161.8,-0.00164
162.00000000000006,-0.0065329999999999
162.2,-0.0092970000000001
162.40000000000003,-0.0108239999999999
162.59999999999997,-0.009328
162.8,-0.0071959999999999
163.00000000000006,-0.0031479999999999
163.2,-0.0034449999999999
163.40000000000003,-0.0040469999999999
163.59999999999997,-0.006108
163.8,-0.0072909999999999
164.00000000000006,-0.0096249999999999
164.2,-0.0104299999999999
164.40000000000003,-0.01191
164.59999999999997,-0.010979
164.8,-0.008577
165.00000000000006,-0.0060869999999999
165.2,-0.0024980000000001
165.40000000000003,-0.000442
165.59999999999997,-0.000383
165.8,-0.0030079999999998
166.00000000000006,-0.006169
166.2,-0.0082979999999999
166.40000000000003,-0.0069570000000001
166.59999999999997,-0.005462
166.8,-0.003808
167.00000000000006,-0.0027729999999999
167.2,-0.002396
167.40000000000003,-0.0034739999999999
167.59999999999997,-0.003759
167.8,-0.0029369999999999
168.00000000000006,-0.001902
168.2,-0.0012959999999999
168.40000000000003,-0.0002539999999999
168.59999999999997,-0.0002390000000001
168.8,-0.001443
169.00000000000006,-0.0023329999999999
169.2,-0.0046649999999999
169.40000000000003,-0.0078339999999998
169.59999999999997,-0.0092849999999999
169.8,-0.007773
170.00000000000006,-0.008278
170.2,-0.0074199999999999
170.40000000000003,-0.008615
170.59999999999997,-0.009927
170.8,-0.014987
171.00000000000006,-0.014879
171.2,-0.016742
171.40000000000003,-0.0165649999999999
171.59999999999997,-0.016464
171.8,-0.0121729999999999
172.00000000000006,-0.0102040000000001
172.2,-0.0066870000000001
172.40000000000003,-0.00293
172.59999999999997,5.699999999997374e-05
172.8,0.0003459999999999
173.00000000000006,-8.300000000005525e-05
173.2,0.000501
173.40000000000003,0.0005219999999999
173.59999999999997,8.699999999994823e-05
173.8,-0.0009699999999999
174.00000000000006,-0.0021029999999999
174.2,-0.003279
174.40000000000003,-0.0044269999999999
174.59999999999997,-0.0054629999999999
174.8,-0.00706
175.00000000000006,-0.0056899999999999
175.2,-0.004226
175.40000000000003,-0.00231
175.59999999999997,-0.001792
175.8,8.099999999999774e-05
176.00000000000006,-0.000218
176.2,9.100000000006324e-05
176.40000000000003,-0.000744
176.59999999999997,0.0002539999999999
176.8,-0.000601
177.00000000000006,-0.001789
177.2,-0.0041889999999999
177.40000000000003,-0.005119
177.59999999999997,-0.0061539999999999
177.8,-0.005419
178.00000000000006,-0.0041009999999999
178.2,-0.002637
178.40000000000003,-0.0016119999999999
178.59999999999997,-0.0009429999999999
178.8,-0.0013799999999999
179.00000000000006,-0.0027319999999999
179.2,-0.003832
179.40000000000003,-0.0035899999999999
179.59999999999997,-0.0038759999999999
179.8,-0.001594
180.00000000000006,0.0024239999999999
180.2,0.004984
180.40000000000003,0.0047189999999999
180.6,0.0052069999999999
180.8,0.004723
181.00000000000009,0.00146
181.2,-0.001227
181.40000000000003,-0.000815
181.6,-0.000485
181.8,-0.0029380000000001
182.00000000000009,-0.0056089999999999
182.2,-0.0074590000000001
182.40000000000003,-0.0104379999999999
182.6,-0.013878
182.8,-0.01221
183.00000000000009,-0.0084519999999999
183.2,-0.0066569999999999
183.40000000000003,-0.005317
183.6,-0.0032510000000001
183.8,-0.0036709999999999
184.00000000000009,-0.0040569999999999
184.2,-0.0033099999999999
184.40000000000003,-0.0021489999999999
184.6,-0.0023059999999999
184.8,-0.002488
185.00000000000009,-0.0031099999999999
185.2,-0.0045209999999999
185.40000000000003,-0.0078579999999999
185.6,-0.0115210000000001
185.8,-0.0150269999999999
186.00000000000009,-0.0186219999999999
186.2,-0.019465
186.40000000000003,-0.017492
186.6,-0.0120039999999999
186.8,-0.008331
187.00000000000009,-0.00472
187.2,-0.003872
187.40000000000003,-0.005128
187.6,-0.011114
187.8,-0.014134
188.00000000000009,-0.0153510000000001
188.2,-0.015738
188.40000000000003,-0.01407
188.6,-0.0101770000000001
188.8,-0.0078689999999999
189.00000000000009,-0.0075689999999999
189.2,-0.00533
189.40000000000003,-0.0037849999999999
189.6,-0.0018
189.8,-0.0022089999999999
190.00000000000009,-0.002798
190.2,-0.0034309999999999
190.40000000000003,-0.004701
190.6,-0.006833
190.8,-0.0068939999999999
191.00000000000009,-0.00583
191.2,-0.0060649999999999
191.40000000000003,-0.006715
191.6,-0.0055069999999999
191.8,-0.005203
192.00000000000009,-0.00712
192.2,-0.009371
192.40000000000003,-0.0103949999999999
192.6,-0.0109239999999999
192.8,-0.008674
193.00000000000009,-0.004121
193.2,0.0010799999999999
193.40000000000003,0.002359
193.6,0.0024429999999999
193.8,0.003603
194.00000000000009,0.0018419999999998
194.2,-0.0017009999999999
194.40000000000003,-0.0024059999999999
194.6,-0.0026319999999999
194.8,-0.004013
195.00000000000009,-0.003316
195.2,-0.0025869999999998
195.40000000000003,-0.003854
195.6,-0.0062999999999999
195.8,-0.0097059999999999
196.00000000000009,-0.0116979999999999
196.2,-0.013349
196.40000000000003,-0.0105170000000001
196.6,-0.008866
196.8,-0.005838
197.00000000000009,-0.003897
197.2,-0.0019629999999999
197.40000000000003,-0.0020949999999999
197.6,-0.0005749999999999
197.8,-0.001684
198.00000000000009,-0.0026839999999999
198.2,-0.0026399999999999
198.40000000000003,-0.0036979999999999
198.6,-0.005443
198.8,-0.007281
199.00000000000009,-0.0093160000000001
199.2,-0.0105919999999999
199.40000000000003,-0.011354
199.6,-0.0115499999999999
199.8,-0.011608
200.00000000000009,-0.0098309999999999
200.2,-0.008256
200.40000000000003,-0.006229
200.6,-0.00411
200.8,-0.001503
201.00000000000009,-0.000849
201.2,-0.000356
201.40000000000003,0.000304
201.6,6.299999999992423e-05
201.8,-0.001309
202.00000000000009,-0.0012469999999999
202.2,-0.002639
202.40000000000003,-0.0030639999999999
202.6,-0.0015169999999999
202.8,0.0017469999999999
203.00000000000009,0.0024839999999999
203.2,0.0035709999999999
203.40000000000003,0.00224
203.6,-0.001033
203.8,-0.004512
204.00000000000009,-0.0070749999999999
204.2,-0.009619
204.40000000000003,-0.01099
204.6,-0.011252
204.8,-0.0126049999999999
205.00000000000009,-0.01136
205.2,-0.0087349999999999
205.40000000000003,-0.008766
205.6,-0.0091699999999999
205.8,-0.0082459999999999
206.00000000000009,-0.0063999999999999
206.2,-0.007292
206.40000000000003,-0.0072689999999999
206.6,-0.0063329999999999
206.8,-0.003538
207.00000000000009,-0.0039299999999999
207.2,-0.0043029999999999
207.40000000000003,-0.0051499999999999
207.6,-0.0053199999999999
207.8,-0.0076739999999999
208.00000000000009,-0.0097949999999999
208.2,-0.0120629999999999
208.40000000000003,-0.010237
208.6,-0.009222
208.8,-0.0067909999999999
209.00000000000009,-0.0050419999999999
209.2,-0.001581
209.40000000000003,-0.001222
209.6,-0.0018439999999999
209.8,-0.0039359999999999
210.00000000000009,-0.0063029999999999
210.2,-0.0090959999999999
210.40000000000003,-0.010213
210.6,-0.01085
210.8,-0.0127219999999999
211.00000000000009,-0.0127749999999999
211.2,-0.0129729999999999
211.40000000000003,-0.01306
211.6,-0.0131589999999999
211.8,-0.0106250000000001
212.00000000000009,-0.0103159999999999
212.2,-0.0083969999999999
212.40000000000003,-0.0059929999999999
212.6,-0.0033989999999999
212.8,-0.0022949999999999
213.00000000000009,-0.0013590000000001
213.2,-0.003049
213.40000000000003,-0.0069429999999999
213.6,-0.010016
213.8,-0.010364
214.00000000000009,-0.0090460000000001
214.2,-0.0069669999999999
214.40000000000003,-0.003613
214.6,-7.599999999996498e-05
214.8,-0.0008570000000001
215.00000000000009,-0.0013419999999999
215.2,0.0003820000000001
215.40000000000003,0.0016799999999999
215.6,0.000928
215.8,0.0008349999999999
216.00000000000009,-0.0003779999999999
216.2,-0.0027140000000001
216.40000000000003,-0.004493
216.6,-0.005125
216.8,-0.0043820000000001
217.00000000000009,-0.0028209999999999
217.2,-0.0019629999999999
217.40000000000003,-0.00181
217.6,-0.0027969999999999
217.8,-0.0035929999999999
218.00000000000009,-0.0056739999999999
218.2,-0.008434
218.40000000000003,-0.010717
218.6,-0.0098879999999998
218.8,-0.0072160000000001
219.00000000000009,-0.003498
219.2,0.001586
219.40000000000003,0.0048839999999998
219.6,0.004933
219.8,0.001227
220.00000000000009,-0.0036529999999999
220.2,-0.0076910000000001
220.40000000000003,-0.0084569999999999
220.6,-0.008779
220.8,-0.006996
221.00000000000009,-0.003344
221.2,-0.0014819999999999
221.40000000000003,-0.0010019999999999
221.6,-0.000269
221.8,-0.0002279999999998
222.00000000000009,-0.000491
222.2,-0.0015279999999999
222.40000000000003,-0.0022359999999999
222.6,-0.003457
222.8,-0.003813
223.00000000000009,-0.00495
223.2,-0.003592
223.40000000000003,-0.0024509999999999
223.6,-0.0021079999999999
223.8,-0.0043139999999999
224.00000000000009,-0.007336
224.2,-0.0106829999999999
224.40000000000003,-0.012933
224.6,-0.011411
224.8,-0.007953
225.00000000000009,-0.002861
225.2,0.002507
225.40000000000003,0.0040409999999999
225.6,0.003395
225.8,0.001433
226.00000000000009,-0.0017100000000001
226.2,-0.0053119999999999
226.40000000000003,-0.0062120000000001
226.6,-0.0076899999999999
226.8,-0.007813
227.00000000000009,-0.0083779999999999
227.2,-0.009398
227.40000000000003,-0.010334
227.6,-0.010618
227.8,-0.0131879999999999
228.00000000000009,-0.0131019999999999
228.2,-0.012162
228.40000000000003,-0.010121
228.6,-0.00956
228.8,-0.006726
229.00000000000009,-0.0056179999999999
229.2,-0.005638
229.40000000000003,-0.005929
229.6,-0.005484
229.8,-0.007179
230.00000000000009,-0.0110829999999999
230.2,-0.012847
230.40000000000003,-0.012969
230.6,-0.0129669999999999
230.8,-0.011694
231.00000000000009,-0.008645
231.2,-0.008807
231.40000000000003,-0.0116519999999999
231.6,-0.0137149999999999
231.8,-0.0129619999999999
232.00000000000009,-0.0110399999999999
232.2,-0.006453
232.40000000000003,-0.0031039999999999
232.6,-0.0010909999999999
232.8,-0.0029639999999999
233.00000000000009,-0.004798
233.2,-0.0082269999999999
233.40000000000003,-0.0089349999999999
233.6,-0.006534
233.8,-0.003281
234.00000000000009,-0.0018439999999999
234.2,-0.000977
234.40000000000003,-0.0017689999999999
234.6,-0.0040169999999999
234.8,-0.0046049999999999
235.00000000000009,-0.0043619999999999
235.2,-0.0033309999999999
235.40000000000003,-0.004267
235.6,-0.006213
235.8,-0.0101709999999999
236.00000000000009,-0.013174
236.2,-0.016059
236.40000000000003,-0.0138739999999999
236.6,-0.0118199999999999
236.8,-0.01034
237.00000000000009,-0.009586
237.2,-0.0079359999999999
237.40000000000003,-0.008099
237.6,-0.0072080000000001
237.8,-0.0060569999999999
238.00000000000009,-0.004971
238.2,-0.004437
238.40000000000003,-0.005006
238.6,-0.004272
238.8,-0.00255
239.00000000000009,-0.001119
239.2,-0.000763
239.40000000000003,0.00021
239.6,-0.0026559999999999
239.8,-0.0052369999999999
240.00000000000009,-0.0086999999999999
240.2,-0.0105630000000001
240.40000000000003,-0.0131699999999999
240.6,-0.013754
240.8,-0.0138180000000001
241.00000000000009,-0.0136739999999999
241.2,-0.0133659999999999
241.40000000000003,-0.012645
241.6,-0.0108490000000001
241.8,-0.010013
242.00000000000009,-0.0072849999999999
242.2,-0.0079839999999999
242.40000000000003,-0.0086079999999999
242.6,-0.010034
242.8,-0.01119
243.00000000000009,-0.0130959999999999
243.2,-0.0128859999999999
243.40000000000003,-0.012693
243.6,-0.0125129999999999
243.8,-0.01204
244.00000000000009,-0.011462
244.2,-0.011643
244.40000000000003,-0.0110529999999999
244.6,-0.0105049999999999
244.8,-0.0095449999999999
245.00000000000009,-0.0107060000000001
245.2,-0.0114689999999999
245.40000000000003,-0.01174
245.6,-0.0112339999999999
245.8,-0.0110509999999999
246.00000000000009,-0.010863
246.2,-0.01065
246.40000000000003,-0.0113179999999999
246.6,-0.013565
246.8,-0.014707
247.00000000000009,-0.0128639999999999
247.2,-0.0117469999999999
247.40000000000003,-0.0106330000000001
247.6,-0.0098069999999998
247.8,-0.0104919999999999
248.00000000000009,-0.0123549999999998
248.2,-0.014086
248.40000000000003,-0.014636
248.6,-0.0124539999999999
248.8,-0.009136
249.00000000000009,-0.0078180000000001
249.2,-0.0051309999999999
249.40000000000003,-0.005406
249.6,-0.0062709999999999
249.8,-0.008337
250.00000000000009,-0.0081519999999999
250.2,-0.0079499999999999
250.40000000000003,-0.0062379999999999
250.6,-0.00655
250.8,-0.007587
251.00000000000009,-0.008196
251.2,-0.0081759999999999
251.40000000000003,-0.008488
251.6,-0.009894
251.8,-0.0104319999999999
252.00000000000009,-0.009765
252.2,-0.0091319999999999
252.40000000000003,-0.0101500000000001
252.6,-0.0095929999999999
252.8,-0.007579
253.00000000000009,-0.0077499999999999
253.2,-0.006612
253.40000000000003,-0.0051669999999999
253.6,-0.0024980000000001
253.8,-0.002652
254.00000000000009,-0.003014
254.2,-0.0056449999999999
254.40000000000003,-0.007295
254.6,-0.009743
254.8,-0.0096009999999999
255.00000000000009,-0.009776
255.2,-0.010839
255.40000000000003,-0.0104630000000001
255.6,-0.010777
255.8,-0.0083519999999999
256.00000000000006,-0.0071609999999999
256.2,-0.006477
256.40000000000003,-0.008536
256.6,-0.008521
256.8,-0.010979
257.00000000000006,-0.0110539999999998
257.2,-0.0109099999999999
257.40000000000003,-0.010596
257.6,-0.0115629999999999
257.8,-0.0143349999999999
258.00000000000006,-0.0157290000000001
258.2,-0.0161770000000001
258.40000000000003,-0.012361
258.6,-0.008898
258.8,-0.006183
259.00000000000006,-0.0060929999999999
259.2,-0.006105
259.40000000000003,-0.008345
259.6,-0.011246
259.8,-0.0107239999999999
260.00000000000006,-0.0088539999999999
260.2,-0.0067539999999999
260.40000000000003,-0.006032
260.6,-0.0048319999999999
260.8,-0.006841
261.00000000000006,-0.0087429999999999
261.2,-0.009921
261.40000000000003,-0.010645
261.6,-0.0075179999999999
261.8,-0.0028459999999999
262.00000000000006,-0.0004759999999999
262.2,-0.0001329999999999
262.40000000000003,0.0007969999999999
262.6,-0.0029539999999999
262.8,-0.0058469999999999
263.00000000000006,-0.0049449999999999
263.2,-0.002604
263.40000000000003,-0.0021379999999999
263.6,-0.000369
263.8,0.001039
264.00000000000006,-0.000296
264.2,-0.002345
264.40000000000003,-0.0041169999999999
264.6,-0.0062089999999999
264.8,-0.0091810000000001
265.00000000000006,-0.0108589999999999
265.2,-0.0122999999999999
265.40000000000003,-0.0128299999999998
265.6,-0.012134
265.8,-0.010299
266.00000000000006,-0.008089
266.2,-0.0054089999999999
266.40000000000003,-0.0036100000000001
266.6,-0.0044079999999999
266.8,-0.0052959999999999
267.00000000000006,-0.006475
267.2,-0.0067569999999999
267.40000000000003,-0.0058869999999999
267.6,-0.004793
267.8,-0.0039150000000001
268.00000000000006,-0.004509
268.2,-0.0055849999999999
268.40000000000003,-0.0072779999999998
268.6,-0.0077869999999999
268.8,-0.0107049999999999
269.00000000000006,-0.0104239999999999
269.2,-0.010531
269.40000000000003,-0.007279
269.6,-0.0058819999999999
269.8,-0.003478
270.00000000000006,-0.0046999999999999
270.2,-0.0046029999999999
270.40000000000003,-0.007543
270.6,-0.0073449999999999
270.8,-0.0081839999999999
271.00000000000006,-0.008264
271.2,-0.008175
271.40000000000003,-0.0091749999999999
271.6,-0.0127919999999999
271.8,-0.016208
272.00000000000006,-0.0173659999999999
272.2,-0.019087
272.40000000000003,-0.0178279999999999
272.6,-0.014129
272.8,-0.008566
273.00000000000006,-0.004391
273.2,-0.0019229999999998
273.40000000000003,-0.000213
273.6,-0.0004710000000001
273.8,-0.002507
274.00000000000006,-0.006232
274.2,-0.0078489999999999
274.40000000000003,-0.0087909999999999
274.6,-0.007946
274.8,-0.006062
275.00000000000006,-0.004582
275.2,-0.005506
275.40000000000003,-0.0055259999999999
275.6,-0.0059119999999999
275.8,-0.004901
276.00000000000006,-0.002083
276.2,0.0015009999999999
276.40000000000003,0.0021189999999999
276.6,0.001041
276.8,-0.002232
277.00000000000006,-0.0064699999999999
277.2,-0.010942
277.40000000000003,-0.012248
277.6,-0.012332
277.8,-0.0116369999999998
278.00000000000006,-0.0114879999999999
278.2,-0.0089259999999999
278.40000000000003,-0.0098599999999999
278.6,-0.0100070000000001
278.8,-0.0104979999999998
279.00000000000006,-0.0090959999999999
279.2,-0.0103139999999999
279.40000000000003,-0.0105319999999999
279.6,-0.0130619999999999
279.8,-0.016102
280.00000000000006,-0.0164679999999999
280.2,-0.015576
280.40000000000003,-0.013854
280.6,-0.0124979999999998
280.8,-0.0098389999999999
281.00000000000006,-0.009376
281.2,-0.0089650000000001
281.40000000000003,-0.009387
281.6,-0.0091209999999999
281.8,-0.009884
282.00000000000006,-0.01262
282.2,-0.0144599999999999
282.40000000000003,-0.0161789999999999
282.6,-0.0173659999999999
282.8,-0.016666
283.00000000000006,-0.0128429999999999
283.2,-0.010836
283.40000000000003,-0.0089129999999999
283.6,-0.007476
283.8,-0.0082919999999999
284.00000000000006,-0.011786
284.2,-0.015174
284.40000000000003,-0.015846
284.6,-0.0157579999999999
284.8,-0.0135009999999999
285.00000000000006,-0.0099089999999999
285.2,-0.0093659999999999
285.40000000000003,-0.0117100000000001
285.6,-0.013462
285.8,-0.015797
286.00000000000006,-0.0184269999999999
286.2,-0.0171099999999999
286.40000000000003,-0.0159199999999999
286.6,-0.0146749999999999
286.8,-0.0128839999999998
287.00000000000006,-0.0110190000000001
287.2,-0.010108
287.40000000000003,-0.0086939999999999
287.6,-0.007935
287.8,-0.0102329999999999
288.00000000000006,-0.010928
288.2,-0.0108140000000001
288.40000000000003,-0.009878
288.6,-0.0071339999999999
288.8,-0.002418
289.00000000000006,0.000504
289.2,0.0025759999999999
289.40000000000003,0.0039229999999998
289.6,0.0035119999999999
289.8,0.000194
290.00000000000006,-0.0038679999999999
290.2,-0.008013
290.40000000000003,-0.01227
290.6,-0.0159
290.8,-0.0175369999999999
291.00000000000006,-0.018655
291.2,-0.019768
291.40000000000003,-0.0192779999999999
291.6,-0.0188349999999999
291.8,-0.0159800000000001
292.00000000000006,-0.0115769999999999
292.2,-0.0060649999999999
292.40000000000003,-0.0027889999999999
292.6,-0.000679
292.8,-0.000728
293.00000000000006,-0.004482
293.2,-0.0090429999999999
293.40000000000003,-0.009891
293.6,-0.0112419999999999
293.8,-0.011425
294.00000000000006,-0.008258
294.2,-0.005009
294.40000000000003,-0.0042429999999999
294.6,-0.0041789999999999
294.8,-0.0048570000000001
295.00000000000006,-0.007611
295.2,-0.0111099999999999
295.40000000000003,-0.0144139999999999
295.6,-0.015079
295.8,-0.013692
296.00000000000006,-0.012199
296.2,-0.0108760000000001
296.40000000000003,-0.010108
296.6,-0.010685
296.8,-0.012224
297.00000000000006,-0.0119070000000001
297.2,-0.0091989999999999
297.40000000000003,-0.0088029999999998
297.6,-0.008388
297.8,-0.008097
298.00000000000006,-0.0083740000000001
298.2,-0.00974
298.40000000000003,-0.009349
298.6,-0.0095989999999999
298.8,-0.0106139999999999
299.00000000000006,-0.0109109999999998
299.2,-0.010993
299.40000000000003,-0.011535
299.6,-0.011867
299.7999999999999,-0.0101820000000001
299.99999999999994,-0.0080489999999999
300.1999999999999,-0.0068840000000001
300.3999999999999,-0.0065189999999999
300.6,-0.006801
300.7999999999999,-0.0069829999999999
300.99999999999994,-0.007311
301.1999999999999,-0.006372
301.3999999999999,-0.00523
301.6,-0.0035260000000001
301.7999999999999,-0.001899
301.99999999999994,0.0011039999999999
302.1999999999999,0.003282
302.3999999999999,0.003422
302.6,0.0027559999999999
302.7999999999999,0.002315
302.99999999999994,0.0013769999999999
303.1999999999999,-0.0001139999999999
303.3999999999999,-0.000437
303.6,-0.00085
303.7999999999999,-0.0018009999999999
303.99999999999994,-0.0022489999999999
304.1999999999999,-0.002868
304.3999999999999,-0.005098
304.6,-0.006718
304.7999999999999,-0.0085520000000001
304.99999999999994,-0.0108890000000001
305.1999999999999,-0.0143699999999999
305.3999999999999,-0.014432
305.6,-0.0146440000000001
305.7999999999999,-0.01305
305.99999999999994,-0.011889
306.1999999999999,-0.009605
306.3999999999999,-0.0084280000000001
306.6,-0.005665
306.7999999999999,-0.0051149999999999
306.99999999999994,-0.0043029999999999
307.1999999999999,-0.0022679999999999
307.3999999999999,-0.001568
307.6,-0.00516
307.7999999999999,-0.0073
307.99999999999994,-0.008634
308.1999999999999,-0.010556
308.3999999999999,-0.0114229999999999
308.6,-0.0086110000000001
308.7999999999999,-0.0046669999999999
308.99999999999994,-0.004974
309.1999999999999,-0.0056329999999999
309.3999999999999,-0.008302
309.6,-0.0114940000000001
309.7999999999999,-0.0156990000000001
309.99999999999994,-0.0139530000000001
310.1999999999999,-0.012164
310.3999999999999,-0.010283
310.6,-0.0103630000000001
310.7999999999999,-0.008685
310.99999999999994,-0.009857
311.1999999999999,-0.0108049999999999
311.3999999999999,-0.0112750000000001
311.6,-0.011508
311.7999999999999,-0.0131449999999999
311.99999999999994,-0.0133149999999999
312.1999999999999,-0.013111
312.3999999999999,-0.0119089999999999
312.6,-0.0092670000000001
312.7999999999999,-0.0077100000000001
312.99999999999994,-0.0082390000000001
313.1999999999999,-0.008034
313.3999999999999,-0.0045209999999999
313.6,-0.0026639999999999
313.7999999999999,0.000631
313.99999999999994,0.004993
314.1999999999999,0.0065779999999999
314.3999999999999,0.0031159999999998
314.6,0.0018089999999999
314.7999999999999,-4.000000000004e-05
314.99999999999994,-0.002825
315.1999999999999,-0.004585
315.3999999999999,-0.006388
315.6,-0.0091270000000001
315.7999999999999,-0.012081
315.99999999999994,-0.0141649999999999
316.1999999999999,-0.013635
316.3999999999999,-0.010542
316.6,-0.008529
316.7999999999999,-0.0089810000000001
316.99999999999994,-0.010162
317.1999999999999,-0.012234
317.3999999999999,-0.0128490000000001
317.6,-0.0112959999999999
317.7999999999999,-0.0086809999999999
317.99999999999994,-0.0072430000000001
318.1999999999999,-0.0069510000000001
318.3999999999999,-0.0088509999999999
318.6,-0.0114860000000001
318.7999999999999,-0.011932
318.99999999999994,-0.0091050000000001
319.1999999999999,-0.006817
319.3999999999999,-0.006007
319.6,-0.005516
319.7999999999999,-0.0060999999999999
319.99999999999994,-0.007398
320.1999999999999,-0.0076359999999999
320.3999999999999,-0.0060930000000001
320.6,-0.005001
320.7999999999999,-0.0035979999999999
320.99999999999994,-0.003349
321.1999999999999,-0.003897
321.3999999999999,-0.0081580000000001
321.6,-0.012572
321.7999999999999,-0.0154670000000001
321.99999999999994,-0.0156210000000001
322.1999999999999,-0.015624
322.3999999999999,-0.0122919999999999
322.6,-0.008367
322.7999999999999,-0.004817
322.99999999999994,-0.0053499999999999
323.1999999999999,-0.006658
323.3999999999999,-0.0078249999999999
323.6,-0.0070970000000001
323.7999999999999,-0.007214
323.99999999999994,-0.0073659999999999
324.1999999999999,-0.00618
324.3999999999999,-0.0052529999999999
324.6,-0.0059649999999999
324.7999999999999,-0.008045
324.99999999999994,-0.007697
325.1999999999999,-0.0084900000000001
325.3999999999999,-0.012221
325.6,-0.0152289999999999
325.7999999999999,-0.017047
325.99999999999994,-0.0170399999999999
326.1999999999999,-0.017435
326.3999999999999,-0.012553
326.6,-0.0084600000000001
326.7999999999999,-0.004985
326.99999999999994,-0.0049829999999999
327.1999999999999,-0.0044220000000001
327.3999999999999,-0.0069430000000001
327.6,-0.008922
327.7999999999999,-0.007446
327.99999999999994,-0.0055469999999999
328.1999999999999,-0.004763
328.3999999999999,-0.004008
328.6,-0.0032149999999999
328.7999999999999,-0.003781
328.99999999999994,-0.004113
329.1999999999999,-0.0031719999999999
329.3999999999999,-0.001416
329.6,-0.00096
329.7999999999999,-0.0009970000000001
329.99999999999994,-0.0016830000000001
330.1999999999999,-0.0015290000000001
330.3999999999999,-0.002259
330.6,-0.00316
330.7999999999999,-0.0043109999999999
330.99999999999994,-0.0047110000000001
331.1999999999999,-0.007247
331.3999999999999,-0.009802
331.6,-0.012966
331.7999999999999,-0.016682
331.99999999999994,-0.0184459999999999
332.1999999999999,-0.0169129999999999
332.3999999999999,-0.012928
332.6,-0.0073370000000001
332.7999999999999,-0.0034629999999999
332.99999999999994,-0.004458
333.1999999999999,-0.0057039999999999
333.3999999999999,-0.0083060000000001
333.6,-0.0093449999999999
333.7999999999999,-0.0112
333.99999999999994,-0.009349
334.1999999999999,-0.0090320000000001
334.3999999999999,-0.010202
334.6,-0.0128410000000001
334.7999999999999,-0.015103
334.99999999999994,-0.016817
335.1999999999999,-0.0169399999999999
335.3999999999999,-0.0144619999999999
335.6,-0.011381
335.7999999999999,-0.006974
335.99999999999994,-0.0024399999999999
336.1999999999999,0.0002679999999999
336.3999999999999,0.0015499999999999
336.6,0.0015019999999998
336.7999999999999,0.00102
336.99999999999994,-0.0007920000000001
337.1999999999999,-0.0010959999999999
337.3999999999999,-0.0019820000000001
337.6,-0.004272
337.7999999999999,-0.0065649999999999
337.99999999999994,-0.008051
338.1999999999999,-0.0106049999999999
338.3999999999999,-0.0125429999999999
338.6,-0.0128099999999999
338.7999999999999,-0.012018
338.99999999999994,-0.0125109999999999
339.1999999999999,-0.011873
339.3999999999999,-0.0111339999999999
339.6,-0.011157
339.7999999999999,-0.0125790000000001
339.99999999999994,-0.011082
340.1999999999999,-0.010933
340.3999999999999,-0.0101599999999999
340.6,-0.0099340000000001
340.7999999999999,-0.0089209999999999
340.99999999999994,-0.0095530000000001
341.1999999999999,-0.0108639999999999
341.3999999999999,-0.0126680000000001
341.6,-0.014218
341.7999999999999,-0.014121
341.99999999999994,-0.012826
342.1999999999999,-0.0114339999999999
342.3999999999999,-0.0103379999999999
342.6,-0.0083139999999999
342.7999999999999,-0.009076
342.99999999999994,-0.012383
343.1999999999999,-0.013573
343.3999999999999,-0.015409
343.6,-0.0157329999999999
343.7999999999999,-0.015244
343.99999999999994,-0.0145140000000001
344.1999999999999,-0.01584
344.3999999999999,-0.016904
344.6,-0.016421
344.7999999999999,-0.0160549999999999
344.99999999999994,-0.0151050000000001
345.1999999999999,-0.0130110000000001
345.3999999999999,-0.0101740000000001
345.6,-0.008499
345.7999999999999,-0.0078759999999999
345.99999999999994,-0.0077770000000001
346.1999999999999,-0.010874
346.3999999999999,-0.014639
346.6,-0.017937
346.7999999999999,-0.0170879999999999
346.99999999999994,-0.0166349999999999
347.1999999999999,-0.0115899999999999
347.3999999999999,-0.006536
347.6,-0.0040839999999999
347.7999999999999,-0.0050799999999999
347.99999999999994,-0.0057819999999999
348.1999999999999,-0.008075
348.3999999999999,-0.0105710000000001
348.6,-0.0118709999999999
348.7999999999999,-0.012447
348.99999999999994,-0.013273
349.1999999999999,-0.012566
349.3999999999999,-0.01227
349.6,-0.0112799999999999
349.7999999999999,-0.010998
349.99999999999994,-0.0096469999999999
350.1999999999999,-0.00957
350.3999999999999,-0.0079819999999999
350.6,-0.0075400000000001
350.7999999999999,-0.008393
350.99999999999994,-0.0106669999999999
351.1999999999999,-0.0117009999999999
351.3999999999999,-0.012321
351.6,-0.010628
351.7999999999999,-0.0077979999999999
351.99999999999994,-0.0058199999999999
352.1999999999999,-0.0060869999999999
352.3999999999999,-0.0075370000000001
352.6,-0.009355
352.7999999999999,-0.0100960000000001
352.99999999999994,-0.008806
353.1999999999999,-0.00726
353.3999999999999,-0.0044269999999999
353.6,-0.0025349999999999
353.7999999999999,-0.0028080000000001
353.99999999999994,-0.0035199999999999
354.1999999999999,-0.006412
354.3999999999999,-0.0102250000000001
354.6,-0.0149540000000001
354.7999999999999,-0.016032
354.99999999999994,-0.014539
355.1999999999999,-0.011066
355.3999999999999,-0.009298
355.6,-0.0081740000000001
355.7999999999999,-0.008008
355.99999999999994,-0.010016
356.1999999999999,-0.0113320000000001
356.3999999999999,-0.0126300000000001
356.6,-0.0136769999999999
356.7999999999999,-0.013795
356.99999999999994,-0.012645
357.1999999999999,-0.0115199999999999
357.3999999999999,-0.008008
357.6,-0.0054769999999999
357.7999999999999,-0.0036720000000001
357.99999999999994,-0.004251
358.1999999999999,-0.0031970000000001
358.3999999999999,-0.0028099999999999
358.6,-0.004259
358.7999999999999,-0.0075990000000001
358.99999999999994,-0.0098659999999999
359.1999999999999,-0.0138880000000001
359.3999999999999,-0.017023
359.6,-0.018548
359.7999999999999,-0.0198119999999999
359.99999999999994,-0.0212749999999999
360.1999999999999,-0.0222310000000001
360.3999999999999,-0.0232620000000001
360.6,-0.0228870000000001
360.7999999999999,-0.020358
361.0,-0.0163980000000001
361.1999999999999,-0.011471
361.3999999999999,-0.0070080000000001
361.6,-0.0043619999999999
361.7999999999999,-0.004485
362.0,-0.006456
362.1999999999999,-0.009646
362.3999999999999,-0.0126380000000001
362.6,-0.0146999999999999
362.7999999999999,-0.015703
363.0,-0.016137
363.1999999999999,-0.016359
363.3999999999999,-0.0178819999999999
363.6,-0.0188600000000001
363.7999999999999,-0.0182470000000001
364.0,-0.0159070000000001
364.1999999999999,-0.013389
364.3999999999999,-0.0116149999999999
364.6,-0.009783
364.7999999999999,-0.0091130000000001
365.0,-0.009335
365.1999999999999,-0.011851
365.3999999999999,-0.0116690000000001
365.6,-0.011606
365.7999999999999,-0.011179
366.0,-0.011795
366.1999999999999,-0.008288
366.3999999999999,-0.0063630000000001
366.6,-0.004861
366.7999999999999,-0.004515
367.0,-0.0049190000000001
367.1999999999999,-0.0075100000000001
367.3999999999999,-0.009411
367.6,-0.0097679999999999
367.7999999999999,-0.01095
368.0,-0.0121299999999999
368.1999999999999,-0.0129509999999999
368.3999999999999,-0.013446
368.6,-0.015905
368.7999999999999,-0.0164459999999999
369.0,-0.014491
369.1999999999999,-0.012961
369.3999999999999,-0.0117869999999999
369.6,-0.0095
369.7999999999999,-0.006402
370.0,-0.005592
370.1999999999999,-0.004895
370.3999999999999,-0.005732
370.6,-0.005227
370.7999999999999,-0.007719
371.0,-0.0110909999999999
371.1999999999999,-0.0155119999999999
371.3999999999999,-0.017138
371.6,-0.0174240000000001
371.7999999999999,-0.017457
372.0,-0.0185900000000001
372.1999999999999,-0.0184299999999999
372.3999999999999,-0.0186570000000001
372.6,-0.02156
372.7999999999999,-0.022658
373.0,-0.020666
373.1999999999999,-0.018008
373.3999999999999,-0.0145349999999999
373.6,-0.0111689999999999
373.7999999999999,-0.0087049999999999
374.0,-0.0092210000000001
374.1999999999999,-0.0121839999999999
374.3999999999999,-0.017233
374.6,-0.0196769999999999
374.7999999999999,-0.0208410000000001
375.0,-0.019749
375.1999999999999,-0.0181869999999999
375.3999999999999,-0.016609
375.6,-0.0157720000000001
375.7999999999999,-0.014356
376.0,-0.0136260000000001
376.1999999999999,-0.0123900000000001
376.3999999999999,-0.011608
376.6,-0.011608
376.7999999999999,-0.013492
377.0,-0.0154419999999999
377.1999999999999,-0.016186
377.3999999999999,-0.0163820000000001
377.6,-0.0163489999999999
377.7999999999999,-0.017721
378.0,-0.016286
378.1999999999999,-0.016672
378.3999999999999,-0.0160299999999999
378.6,-0.0175830000000001
378.7999999999999,-0.0132149999999999
379.0,-0.0111430000000001
379.1999999999999,-0.008318
379.3999999999999,-0.008888
379.6,-0.0086619999999999
379.7999999999999,-0.012334
380.0,-0.014405
380.1999999999999,-0.0175879999999999
380.3999999999999,-0.0171050000000001
380.6,-0.0162729999999999
380.7999999999999,-0.014391
381.0,-0.0131369999999999
381.1999999999999,-0.0110449999999999
381.3999999999999,-0.01143
381.6,-0.013025
381.7999999999999,-0.014637
382.0,-0.015349
382.1999999999999,-0.0138139999999999
382.3999999999999,-0.012521
382.6,-0.0111890000000001
382.7999999999999,-0.011006
383.0,-0.0121040000000001
383.1999999999999,-0.015441
383.3999999999999,-0.0164140000000001
383.6,-0.0165269999999999
383.7999999999999,-0.019347
384.0,-0.020064
384.1999999999999,-0.0192479999999999
384.3999999999999,-0.0181200000000001
384.6,-0.017347
384.7999999999999,-0.0120709999999999
385.0,-0.0083429999999999
385.1999999999999,-0.0071430000000001
385.3999999999999,-0.009838
385.6,-0.0136009999999999
385.7999999999999,-0.0191909999999999
386.0,-0.0241230000000001
386.1999999999999,-0.025822
386.3999999999999,-0.0226410000000001
386.6,-0.018537
386.7999999999999,-0.013592
387.0,-0.0126950000000001
387.1999999999999,-0.0144859999999999
387.3999999999999,-0.0186570000000001
387.6,-0.020323
387.7999999999999,-0.0228049999999999
388.0,-0.0207380000000001
388.1999999999999,-0.0156149999999999
388.3999999999999,-0.0114830000000001
388.6,-0.010264
388.7999999999999,-0.0102710000000001
389.0,-0.01225
389.1999999999999,-0.0170570000000001
389.3999999999999,-0.0205870000000001
389.6,-0.0205060000000001
389.7999999999999,-0.019079
390.0,-0.019101
390.1999999999999,-0.020971
390.3999999999999,-0.0204729999999999
390.6,-0.021919
390.7999999999999,-0.021665
391.0,-0.021541
391.1999999999999,-0.018229
391.3999999999999,-0.01651
391.6,-0.014623
391.7999999999999,-0.0124280000000001
392.0,-0.011773
392.1999999999999,-0.0119709999999999
392.3999999999999,-0.0142679999999999
392.6,-0.0166649999999999
392.7999999999999,-0.0213369999999999
393.0,-0.0219219999999999
393.1999999999999,-0.0209490000000001
393.3999999999999,-0.0157869999999999
393.6,-0.0112970000000001
393.7999999999999,-0.009182
394.0,-0.0092480000000001
394.1999999999999,-0.008707
394.3999999999999,-0.0111240000000001
394.6,-0.0132700000000001
394.7999999999999,-0.01356
395.0,-0.011481
395.1999999999999,-0.0125699999999999
395.3999999999999,-0.014955
395.6,-0.0166220000000001
395.7999999999999,-0.0146870000000001
396.0,-0.013613
396.1999999999999,-0.0121459999999999
396.3999999999999,-0.0087969999999999
396.6,-0.0073989999999999
396.7999999999999,-0.008299
397.0,-0.0109209999999999
397.1999999999999,-0.0115
397.3999999999999,-0.0134560000000001
397.6,-0.0141360000000001
397.7999999999999,-0.0146950000000001
398.0,-0.013543
398.1999999999999,-0.014148
398.3999999999999,-0.0156
398.6,-0.0188239999999999
398.7999999999999,-0.021576
399.0,-0.021981
399.1999999999999,-0.020291
399.3999999999999,-0.017854
399.6,-0.015571
399.7999999999999,-0.0134819999999999
400.0,-0.014213
400.1999999999999,-0.0163059999999999
400.3999999999999,-0.018758
400.6,-0.0182459999999999
400.7999999999999,-0.0166330000000001
401.0,-0.015503
401.1999999999999,-0.0160310000000001
401.3999999999999,-0.0142360000000001
401.6,-0.0129620000000001
401.7999999999999,-0.014863
402.0,-0.0167209999999999
402.1999999999999,-0.0160329999999999
402.3999999999999,-0.017435
402.6,-0.0213829999999999
402.7999999999999,-0.0232700000000001
403.0,-0.0216579999999999
403.1999999999999,-0.0213909999999999
403.3999999999999,-0.02309
403.6,-0.0198519999999999
403.7999999999999,-0.0162809999999999
404.0,-0.0155480000000001
404.1999999999999,-0.016091
404.3999999999999,-0.013517
404.6,-0.013891
404.7999999999999,-0.013981
405.0,-0.0138310000000001
405.1999999999999,-0.0116229999999999
405.3999999999999,-0.012018
405.6,-0.0121090000000001
405.7999999999999,-0.0139759999999999
406.0,-0.0165619999999999
406.1999999999999,-0.019147
406.3999999999999,-0.018717
406.6,-0.019039
406.7999999999999,-0.0181359999999999
407.0,-0.017436
407.1999999999999,-0.0164969999999999
407.3999999999999,-0.0146729999999999
407.6,-0.012669
407.7999999999999,-0.010383
408.0,-0.00875
408.1999999999999,-0.0079200000000001
408.3999999999999,-0.0094320000000001
408.6,-0.011884
408.7999999999999,-0.014345
409.0,-0.014923
409.1999999999999,-0.0148380000000001
409.3999999999999,-0.014432
409.6,-0.0130080000000001
409.7999999999999,-0.0130160000000001
410.0,-0.0113529999999999
410.1999999999999,-0.0109669999999999
410.3999999999999,-0.0099740000000001
410.6,-0.0101660000000001
410.7999999999999,-0.0103440000000001
411.0,-0.0134
411.1999999999999,-0.0150959999999999
411.3999999999999,-0.015454
411.6,-0.0152750000000001
411.7999999999999,-0.0152499999999999
412.0,-0.0155469999999999
412.1999999999999,-0.014272
412.3999999999999,-0.014804
412.6,-0.0161459999999999
412.7999999999999,-0.0179610000000001
413.0,-0.0182930000000001
413.1999999999999,-0.0204280000000001
413.3999999999999,-0.023803
413.6,-0.026081
413.7999999999999,-0.0240949999999999
414.0,-0.021325
414.1999999999999,-0.019141
414.3999999999999,-0.017401
414.6,-0.0166479999999999
414.7999999999999,-0.0169540000000001
415.0,-0.0200340000000001
415.1999999999999,-0.0239690000000001
415.3999999999999,-0.024
415.6,-0.023077
415.7999999999999,-0.0238709999999999
416.0,-0.0241770000000001
416.1999999999999,-0.02166
416.3999999999999,-0.020124
416.6,-0.0192860000000001
416.7999999999999,-0.0206429999999999
417.0,-0.0208019999999999
417.1999999999999,-0.0217150000000001
417.3999999999999,-0.021327
417.6,-0.019139
417.7999999999999,-0.015379
418.0,-0.0125760000000001
418.1999999999999,-0.010691
418.3999999999999,-0.0119439999999999
418.6,-0.0144090000000001
418.7999999999999,-0.0173149999999999
419.0,-0.0179679999999999
419.1999999999999,-0.0181690000000001
419.3999999999999,-0.0166140000000001
419.6,-0.0152240000000001
419.7999999999999,-0.0122919999999999
420.0,-0.011773
420.1999999999999,-0.0126779999999999
420.3999999999999,-0.015668
420.6,-0.016909
420.7999999999999,-0.0179880000000001
421.0,-0.018826
421.1999999999999,-0.0184649999999999
421.3999999999999,-0.0180599999999999
421.6,-0.015973
421.7999999999999,-0.0162230000000001
422.0,-0.0171540000000001
422.1999999999999,-0.0182120000000001
422.3999999999999,-0.017441
422.6,-0.020019
422.7999999999999,-0.0215899999999999
423.0,-0.0214050000000001
423.1999999999999,-0.019814
423.3999999999999,-0.0211019999999999
423.6,-0.0215750000000001
423.7999999999999,-0.023098
424.0,-0.022294
424.1999999999999,-0.0230730000000001
424.3999999999999,-0.021247
424.6,-0.019298
424.7999999999999,-0.0156480000000001
425.0,-0.015152
425.1999999999999,-0.015279
425.3999999999999,-0.0164239999999999
425.6,-0.018218
425.7999999999999,-0.020628
426.0,-0.0222139999999999
426.1999999999999,-0.0238789999999999
426.3999999999999,-0.0240489999999999
426.6,-0.022904
426.7999999999999,-0.0203219999999999
427.0,-0.0183919999999999
427.1999999999999,-0.0168969999999999
427.3999999999999,-0.0169179999999999
427.6,-0.0169559999999999
427.7999999999999,-0.0181869999999999
428.0,-0.0185710000000001
428.1999999999999,-0.019376
428.3999999999999,-0.021363
428.6,-0.0242010000000001
428.7999999999999,-0.0239899999999999
429.0,-0.023349
429.1999999999999,-0.022005
429.3999999999999,-0.0195499999999999
429.6,-0.018429
429.7999999999999,-0.0190110000000001
430.0,-0.019905
430.1999999999999,-0.0187479999999999
430.3999999999999,-0.018823
430.6,-0.018032
430.7999999999999,-0.0180150000000001
431.0,-0.0186300000000001
431.1999999999999,-0.0195720000000001
431.3999999999999,-0.018621
431.6,-0.018936
431.7999999999999,-0.019071
432.0,-0.018221
432.1999999999999,-0.0169700000000001
432.3999999999999,-0.0146870000000001
432.6,-0.0119599999999999
432.7999999999999,-0.0108300000000001
433.0,-0.01204
433.1999999999999,-0.0141979999999999
433.3999999999999,-0.0200260000000001
433.6,-0.026615
433.7999999999999,-0.0319370000000001
434.0,-0.0361260000000001
434.1999999999999,-0.0389060000000001
434.3999999999999,-0.0372339999999999
434.6,-0.0336339999999999
434.7999999999999,-0.0296309999999999
435.0,-0.025427
435.1999999999999,-0.02071
435.3999999999999,-0.0184470000000001
435.6,-0.0161729999999999
435.7999999999999,-0.0152940000000001
436.0,-0.014547
436.1999999999999,-0.0175579999999999
436.3999999999999,-0.0185889999999999
436.6,-0.0191149999999999
436.7999999999999,-0.0201109999999999
437.0,-0.0219
437.1999999999999,-0.022269
437.3999999999999,-0.0235929999999999
437.6,-0.023368
437.7999999999999,-0.0236389999999999
438.0,-0.0238230000000001
438.1999999999999,-0.0258249999999999
438.3999999999999,-0.0254160000000001
438.6,-0.0245079999999999
438.7999999999999,-0.020683
439.0,-0.016107
439.1999999999999,-0.0095800000000001
439.3999999999999,-0.0066140000000001
439.6,-0.0067369999999999
439.7999999999999,-0.0090049999999999
440.0,-0.011595
440.1999999999999,-0.0137899999999999
440.3999999999999,-0.017449
440.6,-0.0208330000000001
440.7999999999999,-0.0217309999999999
441.0,-0.0202200000000001
441.1999999999999,-0.017706
441.3999999999999,-0.0150799999999999
441.6,-0.012291
441.7999999999999,-0.0126680000000001
442.0,-0.0148669999999999
442.1999999999999,-0.0174860000000001
442.3999999999999,-0.016809
442.6,-0.015084
442.7999999999999,-0.013001
443.0,-0.0111540000000001
443.1999999999999,-0.0113659999999999
443.3999999999999,-0.0127060000000001
443.6,-0.0145980000000001
443.7999999999999,-0.015606
444.0,-0.0152419999999999
444.1999999999999,-0.0146950000000001
444.3999999999999,-0.015265
444.6,-0.0156419999999999
444.7999999999999,-0.017978
445.0,-0.020594
445.1999999999999,-0.023495
445.3999999999999,-0.0235130000000001
445.6,-0.0252670000000001
445.7999999999999,-0.0226109999999999
446.0,-0.0221439999999999
446.1999999999999,-0.018469
446.3999999999999,-0.0185589999999999
446.6,-0.0181230000000001
446.7999999999999,-0.019571
447.0,-0.020996
447.1999999999999,-0.023136
447.3999999999999,-0.02244
447.6,-0.0203649999999999
447.7999999999999,-0.0188380000000001
448.0,-0.0173309999999999
448.1999999999999,-0.0163599999999999
448.3999999999999,-0.016542
448.6,-0.0177549999999999
448.7999999999999,-0.018208
449.0,-0.017751
449.1999999999999,-0.018718
449.3999999999999,-0.021276
449.6,-0.0228639999999999
449.7999999999999,-0.024815
450.0,-0.0248669999999999
450.1999999999999,-0.0237910000000001
450.3999999999999,-0.021249
450.6,-0.021983
450.7999999999999,-0.022718
451.0,-0.0229350000000001
451.1999999999999,-0.0225109999999999
451.3999999999999,-0.021635
451.6,-0.0196720000000001
451.7999999999999,-0.0190989999999999
452.0,-0.020216
452.1999999999999,-0.0239629999999999
452.3999999999999,-0.027074
452.6,-0.029163
452.7999999999999,-0.0291080000000001
453.0,-0.029149
453.1999999999999,-0.027805
453.3999999999999,-0.0267300000000001
453.6,-0.024933
453.7999999999999,-0.023446
454.0,-0.0236659999999999
454.1999999999999,-0.023884
454.3999999999999,-0.0267209999999999
454.6,-0.0290799999999999
454.7999999999999,-0.0303059999999999
455.0,-0.0292689999999999
455.1999999999999,-0.030831
455.3999999999999,-0.0312860000000001
455.6,-0.0318830000000001
455.7999999999999,-0.0341
456.0,-0.037419
456.1999999999999,-0.0365980000000001
456.3999999999999,-0.034291
456.6,-0.033978
456.7999999999999,-0.0345200000000001
457.0,-0.0328729999999999
457.1999999999999,-0.0319579999999999
457.3999999999999,-0.03186
457.6,-0.031786
457.7999999999999,-0.030707
458.0,-0.0295309999999999
458.1999999999999,-0.0292749999999999
458.3999999999999,-0.031986
458.6,-0.03387
458.7999999999999,-0.034143
459.0,-0.0369669999999999
459.1999999999999,-0.039271
459.3999999999999,-0.038013
459.6,-0.035398
459.7999999999999,-0.034882
460.0,-0.033849
460.1999999999999,-0.0300279999999999
460.3999999999999,-0.0270049999999999
460.6,-0.026993
460.7999999999999,-0.0266760000000001
461.0,-0.024264
461.1999999999999,-0.025781
461.3999999999999,-0.026936
461.6,-0.027406
461.7999999999999,-0.0252320000000001
462.0,-0.023182
462.1999999999999,-0.0200009999999999
462.3999999999999,-0.017392
462.6,-0.0155290000000001
462.7999999999999,-0.0161850000000001
463.0,-0.018172
463.1999999999999,-0.021411
463.3999999999999,-0.0229920000000001
463.6,-0.0221120000000001
463.7999999999999,-0.021314
464.0,-0.020917
464.1999999999999,-0.0201820000000001
464.3999999999999,-0.021117
464.6,-0.022305
464.7999999999999,-0.024278
465.0,-0.0255279999999999
465.1999999999999,-0.0263729999999999
465.3999999999999,-0.026593
465.6,-0.0279800000000001
465.7999999999999,-0.028572
466.0,-0.0298560000000001
466.1999999999999,-0.029363
466.3999999999999,-0.0289920000000001
466.6,-0.0284079999999999
466.7999999999999,-0.0277419999999999
467.0,-0.0266490000000001
467.1999999999999,-0.0260420000000001
467.3999999999999,-0.026588
467.6,-0.025476
467.7999999999999,-0.0242310000000001
468.0,-0.0240740000000001
468.1999999999999,-0.0242839999999999
468.3999999999999,-0.0240029999999999
468.6,-0.025848
468.7999999999999,-0.0308779999999999
469.0,-0.033123
469.1999999999999,-0.0352350000000001
469.3999999999999,-0.035106
469.6,-0.0345109999999999
469.7999999999999,-0.031041
470.0,-0.0291289999999999
470.1999999999999,-0.0279640000000001
470.3999999999999,-0.0280690000000001
470.6,-0.0256899999999999
470.7999999999999,-0.0230080000000001
471.0,-0.023152
471.1999999999999,-0.025301
471.3999999999999,-0.026566
471.6,-0.029452
471.7999999999999,-0.032909
472.0,-0.033422
472.1999999999999,-0.0306459999999999
472.3999999999999,-0.028553
472.6,-0.0270939999999999
472.7999999999999,-0.025983
473.0,-0.024316
473.1999999999999,-0.0238150000000001
473.3999999999999,-0.0240610000000001
473.6,-0.0245680000000001
473.7999999999999,-0.0243379999999999
474.0,-0.0240740000000001
474.1999999999999,-0.0254799999999999
474.3999999999999,-0.026299
474.6,-0.0268859999999999
474.7999999999999,-0.0269369999999999
475.0,-0.028577
475.1999999999999,-0.0282789999999999
475.3999999999999,-0.0286980000000001
475.6,-0.0280949999999999
475.7999999999999,-0.0288079999999999
476.0,-0.0310890000000001
476.1999999999999,-0.0335290000000001
476.3999999999999,-0.0361709999999999
476.6,-0.0364889999999999
476.7999999999999,-0.0350719999999999
477.0,-0.0323280000000001
477.1999999999999,-0.0303919999999999
477.3999999999999,-0.028183
477.6,-0.0286349999999999
477.7999999999999,-0.030656
478.0,-0.0315860000000001
478.1999999999999,-0.0292339999999999
478.3999999999999,-0.0269030000000001
478.6,-0.0250300000000001
478.7999999999999,-0.0244219999999999
479.0,-0.024726
479.1999999999999,-0.0265900000000001
479.3999999999999,-0.027109
479.6,-0.027767
479.7999999999999,-0.0270319999999999
480.0,-0.026426
480.1999999999999,-0.0259230000000001
480.3999999999999,-0.028146
480.6,-0.0289410000000001
480.7999999999999,-0.0279800000000001
481.0,-0.0259679999999999
481.1999999999999,-0.0231799999999999
481.3999999999999,-0.019913
481.6,-0.017417
481.7999999999999,-0.017657
482.0,-0.0178100000000001
482.1999999999999,-0.0204459999999999
482.3999999999999,-0.022305
482.6,-0.0228479999999999
482.7999999999999,-0.021562
483.0,-0.021873
483.1999999999999,-0.024453
483.3999999999999,-0.024834
483.6,-0.0244870000000001
483.7999999999999,-0.0250939999999999
484.0,-0.0270449999999999
484.1999999999999,-0.0279850000000001
484.3999999999999,-0.0302820000000001
484.6,-0.033725
484.7999999999999,-0.0351810000000001
485.0,-0.035015
485.1999999999999,-0.0316799999999999
485.3999999999999,-0.0296819999999999
485.6,-0.0282420000000001
485.7999999999999,-0.0280660000000001
486.0,-0.0262329999999999
486.1999999999999,-0.026243
486.3999999999999,-0.02587
486.6,-0.0258579999999999
486.7999999999999,-0.025708
487.0,-0.0284349999999999
487.1999999999999,-0.03061
487.3999999999999,-0.031689
487.6,-0.0307600000000001
487.7999999999999,-0.0306889999999999
488.0,-0.0296659999999999
488.1999999999999,-0.026513
488.3999999999999,-0.0246539999999999
488.6,-0.024648
488.7999999999999,-0.023876
489.0,-0.021875
489.1999999999999,-0.0223630000000001
489.3999999999999,-0.022288
489.6,-0.0235830000000001
489.7999999999999,-0.025096
490.0,-0.0267889999999999
490.1999999999999,-0.0282390000000001
490.3999999999999,-0.0290700000000001
490.6,-0.030472
490.7999999999999,-0.031835
491.0,-0.033411
491.1999999999999,-0.0342310000000001
491.3999999999999,-0.035927
491.6,-0.036299
491.7999999999999,-0.0359100000000001
492.0,-0.0330989999999999
492.1999999999999,-0.031201
492.3999999999999,-0.0297039999999999
492.6,-0.0293480000000001
492.7999999999999,-0.0288870000000001
493.0,-0.030712
493.1999999999999,-0.0317119999999999
493.3999999999999,-0.0330049999999999
493.6,-0.0326839999999999
493.7999999999999,-0.0329099999999999
494.0,-0.033768
494.1999999999999,-0.032178
494.3999999999999,-0.0289190000000001
494.6,-0.0241120000000001
494.7999999999999,-0.0213579999999999
495.0,-0.0193419999999999
495.1999999999999,-0.0201120000000001
495.3999999999999,-0.0233179999999999
495.6,-0.0261109999999999
495.7999999999999,-0.0281150000000001
496.0,-0.02835
496.1999999999999,-0.031598
496.3999999999999,-0.0301850000000001
496.6,-0.028783
496.7999999999999,-0.0256089999999999
497.0,-0.024119
497.1999999999999,-0.0203619999999999
497.3999999999999,-0.0190650000000001
497.6,-0.020513
497.7999999999999,-0.0237750000000001
498.0,-0.024979
498.1999999999999,-0.024601
498.3999999999999,-0.024898
498.6,-0.0251179999999999
498.7999999999999,-0.0231730000000001
499.0,-0.0210829999999999
499.1999999999999,-0.0204010000000001
499.3999999999999,-0.020572
499.6,-0.0211590000000001
499.7999999999999,-0.0216210000000001
500.0,-0.0237009999999999
500.1999999999999,-0.0265060000000001
500.3999999999999,-0.0293700000000001
500.6,-0.0306600000000001
500.7999999999999,-0.0330190000000001
501.0,-0.03542
501.1999999999999,-0.037455
501.3999999999999,-0.0370429999999999
501.6,-0.037441
501.7999999999999,-0.038429
502.0,-0.0385189999999999
502.1999999999999,-0.035001
502.3999999999999,-0.0331160000000001
502.6,-0.0324390000000001
502.7999999999999,-0.034507
503.0,-0.0356769999999999
503.1999999999999,-0.0375160000000001
503.3999999999999,-0.036645
503.6,-0.0342599999999999
503.7999999999999,-0.0308559999999999
504.0,-0.0304440000000001
504.1999999999999,-0.0310239999999999
504.3999999999999,-0.0330410000000001
504.6,-0.0329950000000001
504.7999999999999,-0.0314309999999999
505.0,-0.027457
505.1999999999999,-0.0264710000000001
505.3999999999999,-0.0256750000000001
505.6,-0.025239
505.7999999999999,-0.024928
506.0,-0.025622
506.1999999999999,-0.0244219999999999
506.3999999999999,-0.0250000000000001
506.6,-0.0271380000000001
506.7999999999999,-0.028755
507.0,-0.0289460000000001
507.1999999999999,-0.029096
507.3999999999999,-0.0292510000000001
507.6,-0.03061
507.7999999999999,-0.032928
508.0,-0.034345
508.1999999999999,-0.0368319999999999
508.3999999999999,-0.0366170000000001
508.6,-0.0331810000000001
508.7999999999999,-0.029131
509.0,-0.026777
509.1999999999999,-0.0243360000000001
509.3999999999999,-0.021662
509.6,-0.0238659999999999
509.7999999999999,-0.0247999999999999
510.0,-0.0261439999999999
510.1999999999999,-0.025754
510.3999999999999,-0.028005
510.6,-0.027363
510.7999999999999,-0.027824
511.0,-0.026958
511.1999999999998,-0.02773
511.3999999999999,-0.028316
511.5999999999999,-0.028127
511.8,-0.028747
512.0,-0.0316590000000001
512.1999999999998,-0.0334970000000001
512.3999999999999,-0.032164
512.5999999999999,-0.031195
512.8,-0.0303649999999999
513.0,-0.029738
513.1999999999998,-0.0286379999999999
513.3999999999999,-0.0283999999999999
513.5999999999999,-0.030167
513.8,-0.031212
514.0,-0.0326330000000001
514.1999999999998,-0.0340059999999999
514.3999999999999,-0.0367919999999999
514.5999999999999,-0.0369269999999999
514.8,-0.0339180000000001
515.0,-0.0295449999999999
515.1999999999998,-0.0269049999999999
515.3999999999999,-0.0258519999999999
515.5999999999999,-0.025082
515.8,-0.028248
516.0,-0.0305919999999999
516.1999999999998,-0.03272
516.3999999999999,-0.0355160000000001
516.5999999999999,-0.036035
516.8,-0.0352479999999999
517.0,-0.033465
517.1999999999998,-0.0334529999999999
517.3999999999999,-0.0299359999999999
517.5999999999999,-0.026979
517.8,-0.024656
518.0,-0.0261280000000001
518.1999999999998,-0.0269779999999999
518.3999999999999,-0.02641
518.5999999999999,-0.0280610000000001
518.8,-0.028029
519.0,-0.027271
519.1999999999998,-0.0259439999999999
519.3999999999999,-0.0285839999999999
519.5999999999999,-0.0313609999999999
519.8,-0.03333
520.0,-0.033482
520.1999999999998,-0.031568
520.3999999999999,-0.028915
520.5999999999999,-0.0274210000000001
520.8,-0.028337
521.0,-0.0302649999999999
521.1999999999998,-0.033287
521.3999999999999,-0.036046
521.5999999999999,-0.03888
521.8,-0.0398959999999999
522.0,-0.0394529999999999
522.1999999999998,-0.039012
522.3999999999999,-0.0379929999999999
522.5999999999999,-0.034605
522.8,-0.034451
523.0,-0.0342169999999999
523.1999999999998,-0.0316560000000001
523.3999999999999,-0.029849
523.5999999999999,-0.0298290000000001
523.8,-0.0282740000000001
524.0,-0.024423
524.1999999999998,-0.021943
524.3999999999999,-0.021889
524.5999999999999,-0.0228239999999999
524.8,-0.0238500000000001
525.0,-0.0266809999999999
525.1999999999998,-0.031131
525.3999999999999,-0.033851
525.5999999999999,-0.034418
525.8,-0.035209
526.0,-0.0350620000000001
526.1999999999998,-0.034108
526.3999999999999,-0.0313000000000001
526.5999999999999,-0.031204
526.8,-0.030424
527.0,-0.0297499999999999
527.1999999999998,-0.02767
527.3999999999999,-0.027382
527.5999999999999,-0.0272149999999999
527.8,-0.0274560000000001
528.0,-0.0294579999999999
528.1999999999998,-0.032448
528.3999999999999,-0.035249
528.5999999999999,-0.034288
528.8,-0.0337899999999999
529.0,-0.033992
529.1999999999998,-0.0346360000000001
529.3999999999999,-0.032054
529.5999999999999,-0.0300629999999999
529.8,-0.0271970000000001
530.0,-0.023932
530.1999999999998,-0.0222090000000001
530.3999999999999,-0.0243660000000001
530.5999999999999,-0.026477
530.8,-0.0282439999999999
531.0,-0.029425
531.1999999999998,-0.0301070000000001
531.3999999999999,-0.029131
531.5999999999999,-0.0286669999999999
531.8,-0.027973
532.0,-0.029641
532.1999999999998,-0.03098
532.3999999999999,-0.0314449999999999
532.5999999999999,-0.031077
532.8,-0.032545
533.0,-0.0327129999999999
533.1999999999998,-0.03203
533.3999999999999,-0.031843
533.5999999999999,-0.0325280000000001
533.8,-0.0300450000000001
534.0,-0.0276640000000001
534.1999999999998,-0.0253069999999999
534.3999999999999,-0.0249000000000001
534.5999999999999,-0.0257149999999999
534.8,-0.0306269999999999
535.0,-0.0340990000000001
535.1999999999998,-0.03712
535.3999999999999,-0.037276
535.5999999999999,-0.0375689999999999
535.8,-0.0338519999999999
536.0,-0.0314160000000001
536.1999999999998,-0.031017
536.3999999999999,-0.0316910000000001
536.5999999999999,-0.0308289999999999
536.8,-0.031611
537.0,-0.032966
537.1999999999998,-0.031349
537.3999999999999,-0.0290669999999999
537.5999999999999,-0.0277800000000001
537.8,-0.02662
538.0,-0.025317
538.1999999999998,-0.025983
538.3999999999999,-0.0279150000000001
538.5999999999999,-0.0291879999999999
538.8,-0.0304429999999999
539.0,-0.0312099999999999
539.1999999999998,-0.031576
539.3999999999999,-0.0316739999999999
539.5999999999999,-0.034637
539.8,-0.038755
540.0,-0.043268
540.1999999999998,-0.046383
540.3999999999999,-0.049476
540.5999999999999,-0.0506379999999999
540.8,-0.0469570000000001
541.0,-0.0419420000000001
541.1999999999998,-0.0355369999999999
541.3999999999999,-0.030863
541.5999999999999,-0.026372
541.8,-0.0266090000000001
542.0,-0.0277130000000001
542.1999999999998,-0.03095
542.3999999999999,-0.0314670000000001
542.5999999999999,-0.031678
542.8,-0.0304569999999999
543.0,-0.0317640000000001
543.1999999999998,-0.034089
543.3999999999999,-0.0361009999999999
543.5999999999999,-0.038051
543.8,-0.039066
544.0,-0.038691
544.1999999999998,-0.036864
544.3999999999999,-0.0357020000000001
544.5999999999999,-0.0331650000000001
544.8,-0.030804
545.0,-0.0272769999999999
545.1999999999998,-0.0276050000000001
545.3999999999999,-0.0306429999999999
545.5999999999999,-0.032747
545.8,-0.0361599999999999
546.0,-0.0393430000000001
546.1999999999998,-0.0404390000000001
546.3999999999999,-0.0369250000000001
546.5999999999999,-0.0363
546.8,-0.0353499999999999
547.0,-0.0370950000000001
547.1999999999998,-0.038183
547.3999999999999,-0.0408509999999999
547.5999999999999,-0.041341
547.8,-0.0422880000000001
548.0,-0.037579
548.1999999999998,-0.0334160000000001
548.3999999999999,-0.032845
548.5999999999999,-0.0330969999999999
548.8,-0.032691
549.0,-0.034459
549.1999999999998,-0.0354179999999999
549.3999999999999,-0.0316199999999999
549.5999999999999,-0.0300500000000001
549.8,-0.028181
550.0,-0.0275480000000001
550.1999999999998,-0.0277309999999999
550.3999999999999,-0.0287440000000001
550.5999999999999,-0.0254130000000001
550.8,-0.0219720000000001
551.0,-0.020288
551.1999999999998,-0.0185429999999999
551.3999999999999,-0.0185330000000001
551.5999999999999,-0.0215899999999999
551.8,-0.028548
552.0,-0.0305779999999999
552.1999999999998,-0.02896
552.3999999999999,-0.027447
552.5999999999999,-0.030099
552.8,-0.0309369999999999
553.0,-0.034532
553.1999999999998,-0.0385550000000001
553.3999999999999,-0.041384
553.5999999999999,-0.0409669999999999
553.8,-0.0407779999999999
554.0,-0.0398990000000001
554.1999999999998,-0.0397910000000001
554.3999999999999,-0.040524
554.5999999999999,-0.0397469999999999
554.8,-0.036578
555.0,-0.034982
555.1999999999998,-0.0343329999999999
555.3999999999999,-0.0338929999999999
555.5999999999999,-0.0341800000000001
555.8,-0.0363109999999999
556.0,-0.0364189999999999
556.1999999999998,-0.0367570000000001
556.3999999999999,-0.0363120000000001
556.5999999999999,-0.0352970000000001
556.8,-0.0329680000000001
557.0,-0.032024
557.1999999999998,-0.03126
557.3999999999999,-0.030696
557.5999999999999,-0.0302409999999999
557.8,-0.031522
558.0,-0.0317070000000001
558.1999999999998,-0.0316670000000001
558.3999999999999,-0.031984
558.5999999999999,-0.030847
558.8,-0.030297
559.0,-0.0328030000000001
559.1999999999998,-0.036353
559.3999999999999,-0.037152
559.5999999999999,-0.036853
559.8,-0.036005
560.0,-0.033195
560.1999999999998,-0.0294259999999999
560.3999999999999,-0.0260340000000001
560.5999999999999,-0.02384
560.8,-0.024386
561.0,-0.0244269999999999
561.1999999999998,-0.0265999999999999
561.3999999999999,-0.0298880000000001
561.5999999999999,-0.034637
561.8,-0.036612
562.0,-0.0376959999999999
562.1999999999998,-0.0375659999999999
562.3999999999999,-0.0367239999999999
562.5999999999999,-0.0366630000000001
562.8,-0.0350399999999999
563.0,-0.03464
563.1999999999998,-0.03444
563.3999999999999,-0.03569
563.5999999999999,-0.0332879999999999
563.8,-0.030877
564.0,-0.0293879999999999
564.1999999999998,-0.02878
564.3999999999999,-0.0285239999999999
564.5999999999999,-0.031088
564.8,-0.0334229999999999
565.0,-0.035403
565.1999999999998,-0.036969
565.3999999999999,-0.037746
565.5999999999999,-0.039366
565.8,-0.041358
566.0,-0.044437
566.1999999999998,-0.0444120000000001
566.3999999999999,-0.0447600000000001
566.5999999999999,-0.04343
566.8,-0.042518
567.0,-0.040483
567.1999999999998,-0.0416370000000001
567.3999999999999,-0.0425539999999999
567.5999999999999,-0.0433970000000001
567.8,-0.044135
568.0,-0.0448189999999999
568.1999999999998,-0.043457
568.3999999999999,-0.0426790000000001
568.5999999999999,-0.0430239999999999
568.8,-0.0416670000000001
569.0,-0.039573
569.1999999999998,-0.0375290000000001
569.3999999999999,-0.036958
569.5999999999999,-0.0364059999999999
569.8,-0.0368889999999999
570.0,-0.0377260000000001
570.1999999999998,-0.037182
570.3999999999999,-0.0346839999999999
570.5999999999999,-0.0321470000000001
570.8,-0.0309540000000001
571.0,-0.032154
571.1999999999998,-0.034707
571.3999999999999,-0.0366200000000001
571.5999999999999,-0.036502
571.8,-0.0359309999999999
572.0,-0.0330570000000001
572.1999999999998,-0.030478
572.3999999999999,-0.0285539999999999
572.5999999999999,-0.0284740000000001
572.8,-0.0279869999999999
572.9999999999998,-0.028475
573.1999999999998,-0.032707
573.3999999999999,-0.036828
573.5999999999999,-0.039787
573.8,-0.0416590000000001
573.9999999999998,-0.0418210000000001
574.1999999999998,-0.039598
574.3999999999999,-0.03783
574.5999999999999,-0.0395039999999999
574.8,-0.041349
574.9999999999998,-0.042556
575.1999999999998,-0.0394400000000001
575.3999999999999,-0.0359180000000001
575.5999999999999,-0.0312639999999999
575.8,-0.0287570000000001
575.9999999999998,-0.0247790000000001
576.1999999999998,-0.026116
576.3999999999999,-0.029209
576.5999999999999,-0.0321279999999999
576.8,-0.0328859999999999
576.9999999999998,-0.035125
577.1999999999998,-0.036653
577.3999999999999,-0.03607
577.5999999999999,-0.0342919999999999
577.8,-0.0328399999999999
577.9999999999998,-0.0342489999999999
578.1999999999998,-0.036513
578.3999999999999,-0.0367490000000001
578.5999999999999,-0.0352970000000001
578.8,-0.03553
578.9999999999998,-0.0354480000000001
579.1999999999998,-0.0322690000000001
579.3999999999999,-0.031463
579.5999999999999,-0.034437
579.8,-0.0365029999999999
579.9999999999998,-0.035695
580.1999999999998,-0.035217
580.3999999999999,-0.0361850000000001
580.5999999999999,-0.0349460000000001
580.8,-0.0346569999999999
580.9999999999998,-0.0343809999999999
581.1999999999998,-0.037007
581.3999999999999,-0.0388710000000001
581.5999999999999,-0.0406729999999999
581.8,-0.039568
581.9999999999998,-0.0391399999999999
582.1999999999998,-0.036888
582.3999999999999,-0.033447
582.5999999999999,-0.0310350000000001
582.8,-0.0314080000000001
582.9999999999998,-0.0321869999999999
583.1999999999998,-0.0321310000000001
583.3999999999999,-0.0313909999999999
583.5999999999999,-0.0302709999999999
583.8,-0.0294080000000001
583.9999999999998,-0.0299329999999999
584.1999999999998,-0.0293529999999999
584.3999999999999,-0.031508
584.5999999999999,-0.0334799999999999
584.8,-0.033644
584.9999999999998,-0.033414
585.1999999999998,-0.034653
585.3999999999999,-0.035984
585.5999999999999,-0.0364079999999999
585.8,-0.0348429999999999
585.9999999999998,-0.0304679999999999
586.1999999999998,-0.025538
586.3999999999999,-0.022985
586.5999999999999,-0.0208019999999999
586.8,-0.022926
586.9999999999998,-0.0251000000000001
587.1999999999998,-0.0290449999999999
587.3999999999999,-0.031328
587.5999999999999,-0.034416
587.8,-0.035528
587.9999999999998,-0.036996
588.1999999999998,-0.038623
588.3999999999999,-0.0369429999999999
588.5999999999999,-0.0350570000000001
588.8,-0.032947
588.9999999999998,-0.0338279999999999
589.1999999999998,-0.0317899999999999
589.3999999999999,-0.030917
589.5999999999999,-0.030704
589.8,-0.0300770000000001
589.9999999999998,-0.0278789999999999
590.1999999999998,-0.026556
590.3999999999999,-0.026853
590.5999999999999,-0.0277169999999999
590.8,-0.029821
590.9999999999998,-0.032756
591.1999999999998,-0.037206
591.3999999999999,-0.0393479999999999
591.5999999999999,-0.03932
591.8,-0.0401899999999999
591.9999999999998,-0.040791
592.1999999999998,-0.0416389999999999
592.3999999999999,-0.040637
592.5999999999999,-0.0396590000000001
592.8,-0.0353540000000001
592.9999999999998,-0.0303519999999999
593.1999999999998,-0.025287
593.3999999999999,-0.0241379999999999
593.5999999999999,-0.02577
593.8,-0.0290300000000001
593.9999999999998,-0.031441
594.1999999999998,-0.0324550000000001
594.3999999999999,-0.032926
594.5999999999999,-0.0315229999999999
594.8,-0.030162
594.9999999999998,-0.031841
595.1999999999998,-0.0333479999999999
595.3999999999999,-0.0351749999999999
595.5999999999999,-0.035771
595.8,-0.036348
595.9999999999998,-0.0346710000000001
596.1999999999998,-0.035463
596.3999999999999,-0.0373430000000001
596.5999999999999,-0.0397659999999999
596.8,-0.0435430000000001
596.9999999999998,-0.046945
597.1999999999998,-0.0466429999999999
597.3999999999999,-0.0432179999999999
597.5999999999999,-0.0428669999999999
597.8,-0.04491
597.9999999999998,-0.0468159999999999
598.1999999999998,-0.04916
