Time (s),Shift (nm)
0.0,0.0
0.1999999999999886,0.0046809999999999
0.4000000000000341,0.00746
0.6000000000000227,0.007476
0.8000000000000114,0.006229
1.0,0.0066629999999998
1.1999999999999886,0.00716
1.400000000000034,0.006842
1.6000000000000227,0.0050889999999998
1.8000000000000114,0.0043839999999999
2.0,0.0041039999999998
2.1999999999999886,0.0018089999999999
2.400000000000034,-0.0004319999999999
2.6000000000000227,0.0003769999999998
2.800000000000012,0.0018749999999998
3.0,0.0029569999999998
3.1999999999999886,0.0037869999999999
3.400000000000034,0.0035239999999998
3.6000000000000227,0.0041279999999999
3.8000000000000114,0.0045789999999998
4.0,0.005376
4.199999999999989,0.00563
4.400000000000034,0.0063869999999999
4.600000000000023,0.005506
4.800000000000011,0.0039579999999999
5.0,0.0017419999999999
5.199999999999989,0.001163
5.400000000000034,0.001946
5.600000000000023,0.00204
5.800000000000011,0.004135
6.0,0.0073379999999998
6.199999999999989,0.0102219999999999
6.400000000000034,0.0107889999999999
6.600000000000023,0.0119139999999999
6.800000000000011,0.011568
7.0,0.0101609999999998
7.199999999999989,0.006696
7.400000000000034,0.004982
7.600000000000023,0.0034529999999999
7.800000000000011,0.0029679999999998
8.0,0.0031429999999998
8.199999999999989,0.0048269999999999
8.400000000000034,0.0065509999999999
8.600000000000023,0.0091769999999999
8.800000000000011,0.0100759999999999
9.0,0.0093049999999998
9.199999999999989,0.0084389999999998
9.400000000000034,0.007195
9.600000000000025,0.005471
9.800000000000011,0.003568
10.0,0.0024349999999999
10.199999999999989,0.0018019999999998
10.400000000000034,0.001722
10.600000000000025,0.001314
10.800000000000011,0.002504
11.0,0.0045329999999998
11.199999999999989,0.0060759999999999
11.400000000000034,0.0066839999999999
11.600000000000025,0.0071779999999999
11.800000000000011,0.0074529999999999
12.0,0.006021
12.199999999999989,0.005711
12.400000000000034,0.006742
12.600000000000025,0.0073049999999998
12.800000000000011,0.0068789999999998
13.0,0.006221
13.199999999999989,0.0056389999999999
13.400000000000034,0.00343
13.600000000000025,0.0020109999999999
13.800000000000011,0.0002349999999999
14.0,0.0009639999999999
14.199999999999989,0.001457
14.400000000000034,0.0019149999999998
14.600000000000025,0.002326
14.800000000000011,0.0030729999999998
15.0,0.0023839999999999
15.199999999999989,0.0012959999999999
15.400000000000034,0.0012339999999999
15.600000000000025,-1.5000000000098268e-05
15.800000000000011,-0.0006349999999999
16.0,-0.0007509999999999
16.19999999999999,0.000475
16.400000000000034,0.0009079999999999
16.600000000000023,0.0020569999999999
16.80000000000001,0.0016
17.0,0.0009509999999999
17.19999999999999,-0.0002980000000001
17.400000000000034,-0.000224
17.600000000000023,0.0003789999999999
17.80000000000001,0.002545
18.0,0.002874
18.19999999999999,0.002793
18.400000000000038,0.0012239999999998
18.600000000000023,-8.500000000011276e-05
18.80000000000001,-0.0018599999999999
19.0,-0.0019630000000001
19.19999999999999,-0.0020360000000001
19.400000000000038,-0.0008319999999999
19.600000000000023,0.000966
19.80000000000001,0.0017909999999998
20.0,0.0011069999999999
20.19999999999999,-0.0008859999999999
20.400000000000038,-0.002696
20.600000000000023,-0.0064729999999999
20.80000000000001,-0.0083509999999999
21.0,-0.0070959999999999
21.19999999999999,-0.0044619999999999
21.400000000000038,-0.002312
21.600000000000023,-0.0006889999999999
21.80000000000001,0.0004929999999998
22.0,-0.000275
22.19999999999999,-0.002156
22.400000000000038,-0.0049110000000001
22.600000000000023,-0.004869
22.80000000000001,-0.0038850000000001
23.0,-0.000984
23.19999999999999,0.0026589999999999
23.400000000000038,0.0073039999999999
23.600000000000023,0.0099309999999999
23.80000000000001,0.011363
24.0,0.010367
24.19999999999999,0.0075349999999998
24.400000000000038,0.0047059999999998
24.600000000000023,0.0041119999999998
24.80000000000001,0.002553
25.0,0.0030689999999999
25.19999999999999,0.0036049999999998
25.400000000000038,0.0029209999999999
25.600000000000023,0.0006569999999999
25.80000000000001,0.0011029999999998
26.0,0.000294
26.19999999999999,0.0014779999999998
26.400000000000038,0.0025509999999999
26.600000000000023,0.0030639999999999
26.80000000000001,0.0027129999999999
27.0,0.0035899999999999
27.19999999999999,0.0044769999999998
27.400000000000038,0.0059069999999998
27.600000000000023,0.0056399999999998
27.80000000000001,0.0048809999999999
28.0,0.0051669999999999
28.19999999999999,0.004812
28.400000000000038,0.00472
28.600000000000023,0.0056179999999999
28.80000000000001,0.0043229999999998
29.0,0.000213
29.19999999999999,-0.0045680000000001
29.400000000000038,-0.0091590000000001
29.600000000000023,-0.010888
29.80000000000001,-0.0109190000000001
30.0,-0.0124550000000001
30.19999999999999,-0.0118770000000001
30.400000000000038,-0.0069989999999999
30.600000000000023,-0.0032480000000001
30.80000000000001,-0.0011449999999999
31.0,0.00224
31.19999999999999,0.0026109999999999
31.400000000000038,0.0001189999999999
31.600000000000023,-0.002879
31.80000000000001,-0.002277
32.0,-0.000188
32.19999999999999,0.0041249999999999
32.400000000000034,0.0068359999999998
32.60000000000002,0.0096259999999999
32.80000000000001,0.0107239999999999
33.0,0.010901
33.19999999999999,0.0108629999999998
33.400000000000034,0.0092689999999999
33.60000000000002,0.0083439999999999
33.80000000000001,0.00661
34.0,0.0054239999999998
34.19999999999999,0.0044039999999998
34.400000000000034,0.0054119999999999
34.60000000000002,0.0058449999999998
34.80000000000001,0.004904
35.0,0.0039659999999999
35.19999999999999,0.0027779999999999
35.400000000000034,0.0003079999999999
35.60000000000002,-0.002696
35.80000000000001,-0.0024239999999999
36.0,-0.0014450000000001
36.19999999999999,-0.0008460000000001
36.400000000000034,0.0015279999999999
36.60000000000002,0.002793
36.80000000000001,0.0019009999999999
37.0,-0.0008879999999999
37.19999999999999,-0.003462
37.400000000000034,-0.005357
37.60000000000002,-0.00455
37.80000000000001,-0.0036910000000001
38.0,-0.0035579999999999
38.19999999999999,-0.002447
38.400000000000034,-0.00198
38.60000000000002,-0.0020200000000001
38.80000000000001,-0.002726
39.0,-0.001343
39.19999999999999,-0.0002839999999999
39.400000000000034,-0.0004699999999999
39.60000000000002,-0.0013780000000001
39.80000000000001,-0.001954
40.0,-0.000944
40.19999999999999,-0.0008529999999999
40.400000000000034,-0.001057
40.60000000000002,0.0002729999999999
40.80000000000001,0.001719
41.0,0.0005269999999999
41.19999999999999,-0.001862
41.400000000000034,-0.0019789999999999
41.60000000000002,-0.003503
41.80000000000001,-0.004526
42.0,-0.0041729999999999
42.19999999999999,-0.0018709999999999
42.400000000000034,-0.0005870000000001
42.60000000000002,0.0011619999999998
42.80000000000001,0.0039679999999999
43.0,0.0066169999999998
43.19999999999999,0.0070129999999999
43.400000000000034,0.0068559999999999
43.60000000000002,0.0067059999999998
43.80000000000001,0.0065319999999999
44.0,0.0042929999999998
44.19999999999999,0.0027869999999998
44.400000000000034,0.000388
44.60000000000002,-0.0033180000000001
44.80000000000001,-0.007068
45.0,-0.0094009999999999
45.19999999999999,-0.0091080000000001
45.400000000000034,-0.006647
45.60000000000002,-0.0029730000000001
45.80000000000001,-0.000401
46.0,0.0025329999999998
46.19999999999999,0.0036199999999999
46.400000000000034,0.0023379999999999
46.60000000000002,0.0008429999999999
46.80000000000001,-0.0007559999999999
47.0,-0.00225
47.19999999999999,-0.004007
47.400000000000034,-0.0030460000000001
47.60000000000002,-0.001352
47.80000000000001,0.0014939999999998
48.0,0.001967
48.19999999999999,0.0024839999999999
48.400000000000034,0.002888
48.60000000000002,0.002766
48.80000000000001,0.0016279999999999
49.0,0.0018299999999999
49.19999999999999,0.001317
49.400000000000034,3.799999999998249e-05
49.60000000000002,-0.001343
49.80000000000001,-0.002086
50.0,-0.001497
50.19999999999999,0.0014819999999999
50.400000000000034,0.0032689999999999
50.60000000000002,0.004415
50.80000000000001,0.00346
51.0,0.0005389999999998
51.19999999999999,-0.001648
51.400000000000034,-0.0023330000000001
51.60000000000002,-0.0021120000000001
51.80000000000001,-0.001873
52.0,-0.001322
52.19999999999999,-0.004072
52.400000000000034,-0.0055309999999999
52.60000000000002,-0.006008
52.80000000000001,-0.004426
53.0,-0.001908
53.19999999999999,0.000912
53.400000000000034,0.0010699999999999
53.60000000000002,-0.000418
53.80000000000001,-0.0016469999999999
54.0,-0.004569
54.19999999999999,-0.0071369999999999
54.400000000000034,-0.0085300000000001
54.60000000000002,-0.0089589999999999
54.80000000000001,-0.00964
55.0,-0.008612
55.19999999999999,-0.007093
55.400000000000034,-0.005484
55.60000000000002,-0.005252
55.80000000000001,-0.0038979999999999
56.0,-0.002461
56.19999999999999,-7.500000000004725e-05
56.400000000000034,-0.0011929999999999
56.60000000000002,-0.0011620000000001
56.80000000000001,-0.001816
57.0,-0.000415
57.19999999999999,-0.001476
57.400000000000034,-0.0015009999999999
57.60000000000002,-0.001862
57.80000000000001,-0.0023870000000001
58.0,-0.004501
58.19999999999999,-0.004742
58.400000000000034,-0.003273
58.60000000000002,-0.002272
58.80000000000001,-0.0027589999999999
59.0,-0.0043729999999999
59.19999999999999,-0.0061649999999999
59.400000000000034,-0.0076039999999999
59.60000000000002,-0.0080519999999999
59.80000000000001,-0.008172
60.0,-0.00669
60.19999999999999,-0.0055530000000001
60.400000000000034,-0.0039299999999999
60.60000000000002,-0.0041170000000001
60.80000000000001,-0.004628
61.0,-0.007314
61.19999999999999,-0.0091289999999999
61.400000000000034,-0.012094
61.60000000000002,-0.0129129999999999
61.80000000000001,-0.012998
62.00000000000006,-0.011465
62.19999999999999,-0.008466
62.400000000000034,-0.0061599999999999
62.599999999999966,-0.0051689999999999
62.80000000000001,-0.002866
63.00000000000006,0.0016599999999999
63.19999999999999,0.003371
63.400000000000034,0.004612
63.599999999999966,0.0037549999999999
63.80000000000001,0.0016479999999998
64.00000000000006,-0.0025349999999999
64.19999999999999,-0.004893
64.40000000000003,-0.0062969999999999
64.59999999999997,-0.006224
64.80000000000001,-0.0046289999999999
65.00000000000006,-0.0028529999999999
65.19999999999999,-0.001119
65.40000000000003,0.0006239999999999
65.59999999999997,0.002448
65.80000000000001,0.0030729999999998
66.00000000000006,0.0017329999999999
66.19999999999999,0.000699
66.40000000000003,-0.0006319999999999
66.59999999999997,-0.000852
66.80000000000001,-0.00248
67.00000000000006,-0.0025129999999999
67.19999999999999,-0.0038819999999999
67.40000000000003,-0.0045479999999999
67.59999999999997,-0.006121
67.80000000000001,-0.008086
68.00000000000006,-0.008885
68.19999999999999,-0.0090989999999999
68.40000000000003,-0.0081599999999999
68.59999999999997,-0.007867
68.80000000000001,-0.0048760000000001
69.00000000000006,-0.003525
69.19999999999999,-0.0033830000000001
69.40000000000003,-0.004909
69.59999999999997,-0.005182
69.80000000000001,-0.0055359999999999
70.00000000000006,-0.0055150000000001
70.19999999999999,-0.0048110000000001
70.40000000000003,-0.002547
70.59999999999997,-0.0018740000000001
70.80000000000001,-0.0015579999999999
71.00000000000006,-0.001479
71.19999999999999,-0.000879
71.40000000000003,-0.0018819999999999
71.59999999999997,-0.001905
71.80000000000001,-0.0017979999999999
72.00000000000006,-0.0019900000000001
72.19999999999999,-0.0033389999999999
72.40000000000003,-0.003624
72.59999999999997,-0.004056
72.80000000000001,-0.005384
73.00000000000006,-0.0061809999999999
73.19999999999999,-0.0070209999999999
73.40000000000003,-0.0070510000000001
73.59999999999997,-0.0073450000000001
73.80000000000001,-0.006477
74.00000000000006,-0.0073750000000001
74.19999999999999,-0.0069129999999999
74.40000000000003,-0.007495
74.59999999999997,-0.006561
74.80000000000001,-0.006426
75.00000000000006,-0.005227
75.19999999999999,-0.005068
75.40000000000003,-0.006037
75.59999999999997,-0.006596
75.80000000000001,-0.0073469999999999
76.00000000000006,-0.0074039999999999
76.19999999999999,-0.0085840000000001
76.40000000000003,-0.0081759999999999
76.59999999999997,-0.007657
76.80000000000001,-0.0060120000000001
77.00000000000006,-0.004774
77.19999999999999,-0.0033860000000001
77.40000000000003,-0.004728
77.59999999999997,-0.007309
77.80000000000001,-0.010617
78.00000000000006,-0.0134100000000001
78.19999999999999,-0.014019
78.40000000000003,-0.014221
78.59999999999997,-0.0136720000000001
78.80000000000001,-0.0127049999999999
79.00000000000006,-0.0125619999999999
79.19999999999999,-0.012966
79.40000000000003,-0.0117370000000001
79.59999999999997,-0.009201
79.80000000000001,-0.0066619999999999
80.00000000000006,-0.004413
80.19999999999999,-0.0026909999999999
80.40000000000003,-0.001246
80.59999999999997,-0.0031069999999999
80.80000000000001,-0.0050940000000001
81.00000000000006,-0.0070350000000001
81.19999999999999,-0.0069860000000001
81.40000000000003,-0.0077180000000001
81.59999999999997,-0.0071639999999999
81.80000000000001,-0.007527
82.00000000000006,-0.0058770000000001
82.19999999999999,-0.00478
82.40000000000003,-0.003622
82.59999999999997,-0.003757
82.80000000000001,-0.002836
83.00000000000006,-0.003235
83.19999999999999,-0.00547
83.40000000000003,-0.007028
83.59999999999997,-0.0058660000000001
83.80000000000001,-0.004955
84.00000000000006,-0.004199
84.19999999999999,-0.00313
84.40000000000003,-0.0022170000000001
84.59999999999997,-0.0033069999999999
84.80000000000001,-0.00563
85.00000000000006,-0.005989
85.19999999999999,-0.0057249999999999
85.40000000000003,-0.004089
85.59999999999997,-0.00258
85.80000000000001,-0.0005589999999999
86.00000000000006,-0.0008840000000001
86.19999999999999,-0.0032149999999999
86.40000000000003,-0.006394
86.59999999999997,-0.0094119999999999
86.80000000000001,-0.0088540000000001
87.00000000000006,-0.0077580000000001
87.19999999999999,-0.004482
87.40000000000003,-0.0024630000000001
87.59999999999997,-0.0003809999999999
87.80000000000001,-0.0014480000000001
88.00000000000006,-0.0026079999999999
88.19999999999999,-0.003551
88.40000000000003,-0.0026239999999999
88.59999999999997,-0.002102
88.80000000000001,-0.0034530000000001
89.00000000000006,-0.004094
89.19999999999999,-0.005562
89.40000000000003,-0.007282
89.59999999999997,-0.008385
89.80000000000001,-0.007587
90.00000000000006,-0.0070909999999999
90.2,-0.0058709999999999
90.40000000000003,-0.0048049999999999
90.59999999999997,-0.003908
90.8,-0.0033480000000001
91.00000000000006,-0.003495
91.2,-0.0036629999999999
91.40000000000003,-0.005662
91.59999999999997,-0.008162
91.8,-0.009373
92.00000000000006,-0.0090000000000001
92.2,-0.00926
92.40000000000003,-0.0091130000000001
92.59999999999997,-0.0083440000000001
92.8,-0.0084319999999999
93.00000000000006,-0.008542
93.2,-0.008701
93.40000000000003,-0.007343
93.59999999999997,-0.006277
93.8,-0.0051499999999999
94.00000000000006,-0.0055670000000001
94.2,-0.006275
94.40000000000003,-0.0068129999999999
94.59999999999997,-0.0068540000000001
94.8,-0.0071989999999999
95.00000000000006,-0.007457
95.2,-0.009095
95.40000000000003,-0.009902
95.59999999999997,-0.0107779999999999
95.8,-0.01089
96.00000000000006,-0.0098960000000001
96.2,-0.0073860000000001
96.40000000000003,-0.0057800000000001
96.59999999999997,-0.004955
96.8,-0.0039200000000001
97.00000000000006,-0.0034400000000001
97.2,-0.0041930000000001
97.40000000000003,-0.00621
97.59999999999997,-0.006445
97.8,-0.007279
98.00000000000006,-0.008933
98.2,-0.008326
98.40000000000003,-0.006418
98.59999999999997,-0.0069240000000001
98.8,-0.0082060000000001
99.00000000000006,-0.0083649999999999
99.2,-0.0100550000000001
99.40000000000003,-0.0117610000000001
99.59999999999997,-0.0114659999999999
99.8,-0.010907
100.00000000000006,-0.0109559999999999
100.2,-0.010507
100.40000000000003,-0.0108700000000001
100.59999999999997,-0.0110289999999999
100.8,-0.0106049999999999
101.00000000000006,-0.0097549999999999
101.2,-0.0090209999999999
101.40000000000003,-0.0067220000000001
101.59999999999997,-0.004326
101.8,-0.003033
102.00000000000006,-0.0019900000000001
102.2,-0.0015469999999999
102.40000000000003,-0.002609
102.59999999999997,-0.0045779999999999
102.8,-0.006056
103.00000000000006,-0.007441
103.2,-0.0064159999999999
103.40000000000003,-0.0061040000000001
103.59999999999997,-0.0071620000000001
103.8,-0.0072130000000001
104.00000000000006,-0.0074180000000001
104.2,-0.0083269999999999
104.40000000000003,-0.0093499999999999
104.59999999999997,-0.0084809999999999
104.8,-0.008178
105.00000000000006,-0.0090689999999999
105.2,-0.009738
105.40000000000003,-0.007938
105.59999999999997,-0.007325
105.8,-0.0062159999999999
106.00000000000006,-0.004863
106.2,-0.0055990000000001
106.40000000000003,-0.0088220000000001
106.59999999999997,-0.0101850000000001
106.8,-0.0122120000000001
107.00000000000006,-0.012572
107.2,-0.011792
107.40000000000003,-0.0097469999999999
107.59999999999997,-0.009309
107.8,-0.008893
108.00000000000006,-0.0086190000000001
108.2,-0.009281
108.40000000000003,-0.010078
108.59999999999997,-0.0101280000000001
108.8,-0.0103429999999999
109.00000000000006,-0.010728
109.2,-0.009784
109.40000000000003,-0.008078
109.59999999999997,-0.0065159999999999
109.8,-0.006029
110.00000000000006,-0.006761
110.2,-0.0091179999999999
110.40000000000003,-0.011597
110.59999999999997,-0.011776
110.8,-0.0119599999999999
111.00000000000006,-0.011741
111.2,-0.010971
111.40000000000003,-0.0090270000000001
111.59999999999997,-0.0099709999999999
111.8,-0.0093400000000001
112.00000000000006,-0.0096819999999999
112.2,-0.0080439999999999
112.40000000000003,-0.0087380000000001
112.59999999999997,-0.0092659999999999
112.8,-0.010369
113.00000000000006,-0.0096849999999999
113.2,-0.007309
113.40000000000003,-0.0070400000000001
113.59999999999997,-0.0066559999999999
113.8,-0.0067909999999999
114.00000000000006,-0.0069730000000001
114.2,-0.010072
114.40000000000003,-0.0116070000000001
114.59999999999997,-0.012553
114.8,-0.0120010000000001
115.00000000000006,-0.010218
115.2,-0.007535
115.40000000000003,-0.0057679999999999
115.59999999999997,-0.0037660000000001
115.8,-0.00276
116.00000000000006,-0.0028669999999999
116.2,-0.004985
116.40000000000003,-0.005702
116.59999999999997,-0.007654
116.8,-0.008243
117.00000000000006,-0.008248
117.2,-0.0067639999999999
117.40000000000003,-0.0068289999999999
117.59999999999997,-0.0073799999999999
117.8,-0.008996
118.00000000000006,-0.0088080000000001
118.2,-0.0099340000000001
118.40000000000003,-0.0088509999999999
118.59999999999997,-0.0078740000000001
118.8,-0.005503
119.00000000000006,-0.007352
119.2,-0.007473
119.40000000000003,-0.0086950000000001
119.59999999999997,-0.008393
119.8,-0.010283
120.00000000000006,-0.011057
120.2,-0.0124900000000001
120.40000000000003,-0.013382
120.59999999999997,-0.014699
120.8,-0.0139029999999999
121.00000000000006,-0.0126539999999999
121.2,-0.012491
121.40000000000003,-0.0115670000000001
121.59999999999997,-0.0099219999999999
121.8,-0.0109810000000001
122.00000000000006,-0.012593
122.2,-0.013514
122.40000000000003,-0.0143219999999999
122.59999999999997,-0.015438
122.8,-0.014399
123.00000000000006,-0.0112229999999999
123.2,-0.007816
123.40000000000003,-0.0074229999999999
123.59999999999997,-0.007829
123.8,-0.007576
124.00000000000006,-0.008164
124.2,-0.008715
124.40000000000003,-0.0073739999999999
124.59999999999997,-0.0063779999999999
124.8,-0.008637
125.00000000000006,-0.0119359999999999
125.2,-0.0154100000000001
125.40000000000003,-0.018299
125.59999999999997,-0.0188019999999999
125.8,-0.0166349999999999
126.00000000000006,-0.013992
126.2,-0.012351
126.40000000000003,-0.01031
126.59999999999997,-0.0108380000000001
126.8,-0.012326
127.00000000000006,-0.013125
127.2,-0.011703
127.40000000000003,-0.0103820000000001
127.59999999999997,-0.008186
127.8,-0.00581
128.00000000000006,-0.005066
128.2,-0.0062919999999999
128.40000000000003,-0.0079690000000001
128.59999999999997,-0.0096089999999999
128.8,-0.0116150000000001
129.00000000000006,-0.0114689999999999
129.2,-0.0097469999999999
129.40000000000003,-0.0063379999999999
129.59999999999997,-0.00519
129.8,-0.003678
130.00000000000006,-0.004976
130.2,-0.0073100000000001
130.40000000000003,-0.011354
130.59999999999997,-0.0113339999999999
130.8,-0.0106330000000001
131.00000000000006,-0.0106619999999999
131.2,-0.0118949999999999
131.40000000000003,-0.013632
131.59999999999997,-0.0155560000000001
131.8,-0.018162
132.00000000000006,-0.0181839999999999
132.2,-0.017141
132.40000000000003,-0.015481
132.59999999999997,-0.015705
132.8,-0.014191
133.00000000000006,-0.0123600000000001
133.2,-0.010499
133.40000000000003,-0.0099500000000001
133.59999999999997,-0.0073940000000001
133.8,-0.006134
134.00000000000006,-0.004026
134.2,-0.003201
134.40000000000003,-0.00184
134.59999999999997,-0.0013549999999999
134.8,-0.0026460000000001
135.00000000000006,-0.0066589999999999
135.2,-0.008458
135.40000000000003,-0.0100740000000001
135.59999999999997,-0.010934
135.8,-0.010564
136.00000000000006,-0.0088319999999999
136.2,-0.0084710000000001
136.40000000000003,-0.007179
136.59999999999997,-0.0071000000000001
136.8,-0.006148
137.00000000000006,-0.003608
137.2,-0.0020189999999999
137.40000000000003,-0.0025980000000001
137.59999999999997,-0.002734
137.8,-0.0017420000000001
138.00000000000006,-0.0028639999999999
138.2,-0.0047570000000001
138.40000000000003,-0.0054720000000001
138.59999999999997,-0.006995
138.8,-0.009843
139.00000000000006,-0.012682
139.2,-0.01255
139.40000000000003,-0.010949
139.59999999999997,-0.0087479999999999
139.8,-0.006685
140.00000000000006,-0.006169
140.2,-0.0057690000000001
140.40000000000003,-0.0074039999999999
140.59999999999997,-0.009109
140.8,-0.0116800000000001
141.00000000000006,-0.0127330000000001
141.2,-0.012637
141.40000000000003,-0.0105140000000001
141.59999999999997,-0.009139
141.8,-0.0066939999999999
142.00000000000006,-0.0044980000000001
142.2,-0.0045209999999999
142.40000000000003,-0.004742
142.59999999999997,-0.0031419999999999
142.8,-0.0036070000000001
143.00000000000006,-0.0047289999999999
143.2,-0.0052879999999999
143.40000000000003,-0.0057709999999999
143.59999999999997,-0.0082550000000001
143.8,-0.0092909999999999
144.00000000000006,-0.009436
144.2,-0.0102489999999999
144.40000000000003,-0.011454
144.59999999999997,-0.012199
144.8,-0.0128019999999999
145.00000000000006,-0.012718
145.2,-0.012094
145.40000000000003,-0.011071
145.59999999999997,-0.009579
145.8,-0.0085589999999999
146.00000000000006,-0.0090479999999999
146.2,-0.009676
146.40000000000003,-0.0101550000000001
146.59999999999997,-0.010062
146.8,-0.009084
147.00000000000006,-0.0087330000000001
147.2,-0.007112
147.40000000000003,-0.0058789999999999
147.59999999999997,-0.0049780000000001
147.8,-0.00587
148.00000000000006,-0.0064600000000001
148.2,-0.008612
148.40000000000003,-0.01129
148.59999999999997,-0.014434
148.8,-0.016887
149.00000000000006,-0.0168270000000001
149.2,-0.0162189999999999
149.40000000000003,-0.013786
149.59999999999997,-0.0116709999999999
149.8,-0.009325
150.00000000000006,-0.008518
150.2,-0.007659
150.40000000000003,-0.0081090000000001
150.59999999999997,-0.007371
150.8,-0.007821
151.00000000000006,-0.00922
151.2,-0.0119519999999999
151.40000000000003,-0.014054
151.59999999999997,-0.0172350000000001
151.8,-0.0186220000000001
152.00000000000006,-0.01885
152.2,-0.0165189999999999
152.40000000000003,-0.0154119999999999
152.59999999999997,-0.013757
152.8,-0.013757
153.00000000000006,-0.0134689999999999
153.2,-0.014526
153.40000000000003,-0.013246
153.59999999999997,-0.013422
153.8,-0.0117850000000001
154.00000000000006,-0.0102170000000001
154.2,-0.0087909999999999
154.40000000000003,-0.0098450000000001
154.59999999999997,-0.0088650000000001
154.8,-0.0093970000000001
155.00000000000006,-0.0109319999999999
155.2,-0.013195
155.40000000000003,-0.01549
155.59999999999997,-0.0172510000000001
155.8,-0.0166920000000001
156.00000000000006,-0.014483
156.2,-0.011741
156.40000000000003,-0.0097020000000001
156.59999999999997,-0.008572
156.8,-0.0090810000000001
157.00000000000006,-0.010745
157.2,-0.013214
157.40000000000003,-0.0139260000000001
157.59999999999997,-0.016145
157.8,-0.0171689999999999
158.00000000000006,-0.0180880000000001
158.2,-0.0190590000000001
158.40000000000003,-0.0221869999999999
158.59999999999997,-0.0217249999999999
158.8,-0.0190540000000001
159.00000000000006,-0.0157599999999999
159.2,-0.0123809999999999
159.40000000000003,-0.0091240000000001
159.59999999999997,-0.007713
159.8,-0.0091879999999999
160.00000000000006,-0.0091719999999999
160.2,-0.008305
160.40000000000003,-0.0053879999999999
160.59999999999997,-0.0048289999999999
160.8,-0.0053419999999999
161.00000000000006,-0.0061299999999999
161.2,-0.006159
161.40000000000003,-0.0077249999999999
161.59999999999997,-0.009333
161.8,-0.0104550000000001
162.00000000000006,-0.012934
162.2,-0.0153769999999999
162.40000000000003,-0.015903
162.59999999999997,-0.014545
162.8,-0.0134119999999999
163.00000000000006,-0.0118059999999999
163.2,-0.0092160000000001
163.40000000000003,-0.007452
163.59999999999997,-0.0068369999999999
163.8,-0.0059869999999999
164.00000000000006,-0.006169
164.2,-0.0075560000000001
164.40000000000003,-0.0106680000000001
164.59999999999997,-0.0130909999999999
164.8,-0.014148
165.00000000000006,-0.0147220000000001
165.2,-0.0159979999999999
165.40000000000003,-0.0160280000000001
165.59999999999997,-0.015643
165.8,-0.0163820000000001
166.00000000000006,-0.0164900000000001
166.2,-0.016375
166.40000000000003,-0.015244
166.59999999999997,-0.0137530000000001
166.8,-0.0120070000000001
167.00000000000006,-0.012826
167.2,-0.014793
167.40000000000003,-0.0166079999999999
167.59999999999997,-0.0174469999999999
167.8,-0.019795
168.00000000000006,-0.0210540000000001
168.2,-0.0198580000000001
168.40000000000003,-0.0178800000000001
168.59999999999997,-0.018002
168.8,-0.017721
169.00000000000006,-0.018626
169.2,-0.0185539999999999
169.40000000000003,-0.018855
169.59999999999997,-0.017174
169.8,-0.0144859999999999
170.00000000000006,-0.009438
170.2,-0.007748
170.40000000000003,-0.0087429999999999
170.59999999999997,-0.0130369999999999
170.8,-0.017138
171.00000000000006,-0.018626
171.2,-0.0189049999999999
171.40000000000003,-0.0173609999999999
171.59999999999997,-0.0145360000000001
171.8,-0.0126170000000001
172.00000000000006,-0.0131860000000001
172.2,-0.013576
172.40000000000003,-0.0149289999999999
172.59999999999997,-0.015587
172.8,-0.0163409999999999
173.00000000000006,-0.0179679999999999
173.2,-0.0185779999999999
173.40000000000003,-0.0163649999999999
173.59999999999997,-0.014464
173.8,-0.0134849999999999
174.00000000000006,-0.012531
174.2,-0.013106
174.40000000000003,-0.0151130000000001
174.59999999999997,-0.0151350000000001
174.8,-0.0138990000000001
175.00000000000006,-0.0125360000000001
175.2,-0.010966
175.40000000000003,-0.008485
175.59999999999997,-0.008582
175.8,-0.009527
176.00000000000006,-0.0127060000000001
176.2,-0.014666
176.40000000000003,-0.0170399999999999
176.59999999999997,-0.017533
176.8,-0.016288
177.00000000000006,-0.0140580000000001
177.2,-0.013902
177.40000000000003,-0.016191
177.59999999999997,-0.017368
177.8,-0.018594
178.00000000000006,-0.01811
178.2,-0.015808
178.40000000000003,-0.0125049999999999
178.59999999999997,-0.0115400000000001
178.8,-0.0114929999999999
179.00000000000006,-0.0113739999999999
179.2,-0.0122459999999999
179.40000000000003,-0.0127479999999999
179.59999999999997,-0.0140280000000001
179.8,-0.0141869999999999
180.00000000000006,-0.015222
180.2,-0.015433
180.40000000000003,-0.016431
180.6,-0.0165079999999999
180.8,-0.016995
181.00000000000009,-0.017352
181.2,-0.018642
181.40000000000003,-0.018359
181.6,-0.016575
181.8,-0.0152909999999999
182.00000000000009,-0.014159
182.2,-0.0127140000000001
182.40000000000003,-0.0114720000000001
182.6,-0.0110320000000001
182.8,-0.0122079999999999
183.00000000000009,-0.011965
183.2,-0.0115959999999999
183.40000000000003,-0.012361
183.6,-0.0150000000000001
183.8,-0.015948
184.00000000000009,-0.0171350000000001
184.2,-0.018807
184.40000000000003,-0.019533
184.6,-0.0179040000000001
184.8,-0.015265
185.00000000000009,-0.014046
185.2,-0.0133799999999999
185.40000000000003,-0.0138070000000001
185.6,-0.014774
185.8,-0.0165269999999999
186.00000000000009,-0.018885
186.2,-0.0195309999999999
186.40000000000003,-0.0176960000000001
186.6,-0.017489
186.8,-0.016793
187.00000000000009,-0.0139770000000001
187.2,-0.011241
187.40000000000003,-0.0105790000000001
187.6,-0.010577
187.8,-0.009813
188.00000000000009,-0.0094879999999999
188.2,-0.0091750000000001
188.40000000000003,-0.0093830000000001
188.6,-0.0093560000000001
188.8,-0.0114609999999999
189.00000000000009,-0.0141150000000001
189.2,-0.0150540000000001
189.40000000000003,-0.0155720000000001
189.6,-0.0142299999999999
189.8,-0.012861
190.00000000000009,-0.009211
190.2,-0.0082919999999999
190.40000000000003,-0.008566
190.6,-0.009514
190.8,-0.010439
191.00000000000009,-0.012656
191.2,-0.013965
191.40000000000003,-0.0148140000000001
191.6,-0.0150050000000001
191.8,-0.014501
192.00000000000009,-0.015533
192.2,-0.0169179999999999
192.40000000000003,-0.015212
192.6,-0.0140059999999999
192.8,-0.0138139999999999
193.00000000000009,-0.013562
193.2,-0.013047
193.40000000000003,-0.0143699999999999
193.6,-0.0169909999999999
193.8,-0.01723
194.00000000000009,-0.016717
194.2,-0.0160029999999999
194.40000000000003,-0.016351
194.6,-0.016769
194.8,-0.017835
195.00000000000009,-0.0190240000000001
195.2,-0.0185900000000001
195.40000000000003,-0.0165360000000001
195.6,-0.0137869999999999
195.8,-0.0130380000000001
196.00000000000009,-0.012067
196.2,-0.013773
196.40000000000003,-0.016059
196.6,-0.0174910000000001
196.8,-0.016793
197.00000000000009,-0.0161109999999999
197.2,-0.014817
197.40000000000003,-0.013497
197.6,-0.012804
197.8,-0.013168
198.00000000000009,-0.0125939999999999
198.2,-0.0137720000000001
198.40000000000003,-0.01512
198.6,-0.0159519999999999
198.8,-0.0155769999999999
199.00000000000009,-0.0152849999999999
199.2,-0.014969
199.40000000000003,-0.014615
199.6,-0.0121519999999999
199.8,-0.01061
200.00000000000009,-0.0096389999999999
200.2,-0.0084079999999999
200.40000000000003,-0.006882
200.6,-0.0083060000000001
200.8,-0.0091989999999999
201.00000000000009,-0.0102900000000001
201.2,-0.009794
201.40000000000003,-0.0101539999999999
201.6,-0.010364
201.8,-0.013003
202.00000000000009,-0.0143630000000001
202.2,-0.015185
202.40000000000003,-0.0147509999999999
202.6,-0.0146969999999999
202.8,-0.0124969999999999
203.00000000000009,-0.012907
203.2,-0.0138
203.40000000000003,-0.0156629999999999
203.6,-0.0151080000000001
203.8,-0.0149989999999999
204.00000000000009,-0.014682
204.2,-0.015117
204.40000000000003,-0.015759
204.6,-0.0168159999999999
204.8,-0.0181770000000001
205.00000000000009,-0.0185649999999999
205.2,-0.018993
205.40000000000003,-0.0170749999999999
205.6,-0.0152419999999999
205.8,-0.013266
206.00000000000009,-0.010499
206.2,-0.008083
206.40000000000003,-0.006804
206.6,-0.0080729999999999
206.8,-0.0092989999999999
207.00000000000009,-0.0123459999999999
207.2,-0.0144269999999999
207.40000000000003,-0.0163440000000001
207.6,-0.017373
207.8,-0.019004
208.00000000000009,-0.0173830000000001
208.2,-0.0155450000000001
208.40000000000003,-0.0152830000000001
208.6,-0.0162630000000001
208.8,-0.0153149999999999
209.00000000000009,-0.0162280000000001
209.2,-0.0160580000000001
209.40000000000003,-0.015249
209.6,-0.012596
209.8,-0.011519
210.00000000000009,-0.010796
210.2,-0.0093320000000001
210.40000000000003,-0.0090940000000001
210.6,-0.0102850000000001
210.8,-0.012223
211.00000000000009,-0.014569
211.2,-0.0176800000000001
211.40000000000003,-0.0186110000000001
211.6,-0.0183060000000001
211.8,-0.015762
212.00000000000009,-0.01374
212.2,-0.0133179999999999
212.40000000000003,-0.013349
212.6,-0.013711
212.8,-0.015972
213.00000000000009,-0.0173069999999999
213.2,-0.0185630000000001
213.40000000000003,-0.020858
213.6,-0.0213860000000001
213.8,-0.021184
214.00000000000009,-0.0207870000000001
214.2,-0.019527
214.40000000000003,-0.0177340000000001
214.6,-0.0171080000000001
214.8,-0.0160709999999999
215.00000000000009,-0.0144950000000001
215.2,-0.01539
215.40000000000003,-0.016628
215.6,-0.018053
215.8,-0.0186859999999999
216.00000000000009,-0.0206509999999999
216.2,-0.0203379999999999
216.40000000000003,-0.0182489999999999
216.6,-0.0157150000000001
216.8,-0.0132160000000001
217.00000000000009,-0.011165
217.2,-0.009163
217.40000000000003,-0.0083470000000001
217.6,-0.0073130000000001
217.8,-0.007146
218.00000000000009,-0.0062470000000001
218.2,-0.007776
218.40000000000003,-0.0104079999999999
218.6,-0.014593
218.8,-0.0185619999999999
219.00000000000009,-0.023889
219.2,-0.026593
219.40000000000003,-0.0270570000000001
219.6,-0.0247730000000001
219.8,-0.0212240000000001
220.00000000000009,-0.015884
220.2,-0.0100169999999999
220.40000000000003,-0.006671
220.6,-0.004296
220.8,-0.0035420000000001
221.00000000000009,-0.005103
221.2,-0.0102170000000001
221.40000000000003,-0.0151989999999999
221.6,-0.018758
221.8,-0.0202200000000001
222.00000000000009,-0.0196469999999999
222.2,-0.0170650000000001
222.40000000000003,-0.0132700000000001
222.6,-0.011857
222.8,-0.0118089999999999
223.00000000000009,-0.012024
223.2,-0.0123349999999999
223.40000000000003,-0.010499
223.6,-0.0090920000000001
223.8,-0.00879
224.00000000000009,-0.009451
224.2,-0.0095929999999999
224.40000000000003,-0.0138869999999999
224.6,-0.016917
224.8,-0.017776
225.00000000000009,-0.0165509999999999
225.2,-0.0163930000000001
225.40000000000003,-0.0146460000000001
225.6,-0.012153
225.8,-0.012334
226.00000000000009,-0.0138070000000001
226.2,-0.014261
226.40000000000003,-0.012969
226.6,-0.01164
226.8,-0.0102520000000001
227.00000000000009,-0.0105699999999999
227.2,-0.0112430000000001
227.40000000000003,-0.0128300000000001
227.6,-0.0151860000000001
227.8,-0.017468
228.00000000000009,-0.0167570000000001
228.2,-0.015165
228.40000000000003,-0.0160219999999999
228.6,-0.0176560000000001
228.8,-0.017786
229.00000000000009,-0.0171860000000001
229.2,-0.016178
229.40000000000003,-0.0122059999999999
229.6,-0.0078180000000001
229.8,-0.0048920000000001
230.00000000000009,-0.003797
230.2,-0.005749
230.40000000000003,-0.0103090000000001
230.6,-0.0164360000000001
230.8,-0.019414
231.00000000000009,-0.0201740000000001
231.2,-0.019255
231.40000000000003,-0.0192879999999999
231.6,-0.0191510000000001
231.8,-0.0207429999999999
232.00000000000009,-0.0245159999999999
232.2,-0.0274229999999999
232.40000000000003,-0.0276309999999999
232.6,-0.025468
232.8,-0.023878
233.00000000000009,-0.022296
233.2,-0.0215020000000001
233.40000000000003,-0.0203900000000001
233.6,-0.0201010000000001
233.8,-0.0198800000000001
234.00000000000009,-0.019255
234.2,-0.0175899999999999
234.40000000000003,-0.018153
234.6,-0.0190989999999999
234.8,-0.0207159999999999
235.00000000000009,-0.0209399999999999
235.2,-0.0223440000000001
235.40000000000003,-0.022534
235.6,-0.0220489999999999
235.8,-0.0207490000000001
236.00000000000009,-0.0192130000000001
236.2,-0.016823
236.40000000000003,-0.0146730000000001
236.6,-0.013676
236.8,-0.0135050000000001
237.00000000000009,-0.014529
237.2,-0.014847
237.40000000000003,-0.014774
237.6,-0.0134739999999999
237.8,-0.0119759999999999
238.00000000000009,-0.0108300000000001
238.2,-0.012623
238.40000000000003,-0.0155130000000001
238.6,-0.0200340000000001
238.8,-0.0229049999999999
239.00000000000009,-0.0250639999999999
239.2,-0.025859
239.40000000000003,-0.0266600000000001
239.6,-0.0258290000000001
239.8,-0.0250110000000001
240.00000000000009,-0.023706
240.2,-0.0201930000000001
240.40000000000003,-0.0150289999999999
240.6,-0.0108939999999999
240.8,-0.010615
241.00000000000009,-0.011492
241.2,-0.0148779999999999
241.40000000000003,-0.016734
241.6,-0.0174670000000001
241.8,-0.016396
242.00000000000009,-0.017468
242.2,-0.016529
242.40000000000003,-0.016261
242.6,-0.016585
242.8,-0.0167950000000001
243.00000000000009,-0.0162440000000001
243.2,-0.0172149999999999
243.40000000000003,-0.0193560000000001
243.6,-0.0217690000000001
243.8,-0.022521
244.00000000000009,-0.0222440000000001
244.2,-0.0218819999999999
244.40000000000003,-0.02027
244.6,-0.0182250000000001
244.8,-0.0171689999999999
245.00000000000009,-0.016388
245.2,-0.014453
245.40000000000003,-0.0139839999999999
245.6,-0.0143189999999999
245.8,-0.015613
246.00000000000009,-0.0157789999999999
246.2,-0.0170399999999999
246.40000000000003,-0.0183790000000001
246.6,-0.0190840000000001
246.8,-0.0176199999999999
247.00000000000009,-0.017516
247.2,-0.0192050000000001
247.40000000000003,-0.0194320000000001
247.6,-0.018213
247.8,-0.01838
248.00000000000009,-0.0208939999999999
248.2,-0.02008
248.40000000000003,-0.019719
248.6,-0.020745
248.8,-0.0229129999999999
249.00000000000009,-0.0206680000000001
249.2,-0.0190540000000001
249.40000000000003,-0.017946
249.6,-0.017247
249.8,-0.015848
250.00000000000009,-0.0154419999999999
250.2,-0.0154009999999999
250.40000000000003,-0.0157249999999999
250.6,-0.017352
250.8,-0.0190879999999999
251.00000000000009,-0.0201770000000001
251.2,-0.021578
251.40000000000003,-0.0229449999999999
251.6,-0.022046
251.8,-0.018726
252.00000000000009,-0.014548
252.2,-0.011176
252.40000000000003,-0.007578
252.6,-0.0077329999999999
252.8,-0.008842
253.00000000000009,-0.0114419999999999
253.2,-0.0118979999999999
253.40000000000003,-0.013673
253.6,-0.0143619999999999
253.8,-0.01536
254.00000000000009,-0.0178930000000001
254.2,-0.020926
254.40000000000003,-0.022351
254.6,-0.0204649999999999
254.8,-0.019363
255.00000000000009,-0.0190879999999999
255.2,-0.018755
255.40000000000003,-0.0199470000000001
255.6,-0.021212
255.8,-0.0215389999999999
256.00000000000006,-0.018623
256.2,-0.0167110000000001
256.40000000000003,-0.014294
256.6,-0.0142869999999999
256.8,-0.014575
257.00000000000006,-0.015077
257.2,-0.0156690000000001
257.40000000000003,-0.0162850000000001
257.6,-0.016453
257.8,-0.016515
258.00000000000006,-0.0171339999999999
258.2,-0.0183079999999999
258.40000000000003,-0.020278
258.6,-0.020315
258.8,-0.018952
259.00000000000006,-0.017344
259.2,-0.0163120000000001
259.40000000000003,-0.0144870000000001
259.6,-0.0133910000000001
259.8,-0.014243
260.00000000000006,-0.016153
260.2,-0.016396
260.40000000000003,-0.0155419999999999
260.6,-0.014726
260.8,-0.0138930000000001
261.00000000000006,-0.013327
261.2,-0.014799
261.40000000000003,-0.017058
261.6,-0.019487
261.8,-0.020691
262.00000000000006,-0.021411
262.2,-0.0215750000000001
262.40000000000003,-0.020809
262.6,-0.0195320000000001
262.8,-0.0191700000000001
263.00000000000006,-0.01916
263.2,-0.0168760000000001
263.40000000000003,-0.0142250000000001
263.6,-0.0119949999999999
263.8,-0.0108680000000001
264.00000000000006,-0.009792
264.2,-0.0105589999999999
264.40000000000003,-0.0131080000000001
264.6,-0.016172
264.8,-0.0168319999999999
265.00000000000006,-0.017236
265.2,-0.018674
265.40000000000003,-0.018688
265.6,-0.0188540000000001
265.8,-0.0201470000000001
266.00000000000006,-0.020216
266.2,-0.0188540000000001
266.40000000000003,-0.0174290000000001
266.6,-0.0150799999999999
266.8,-0.0124859999999999
267.00000000000006,-0.012553
267.2,-0.0121230000000001
267.40000000000003,-0.0128749999999999
267.6,-0.0133119999999999
267.8,-0.0154830000000001
268.00000000000006,-0.016755
268.2,-0.019509
268.40000000000003,-0.0199009999999999
268.6,-0.0209350000000001
268.8,-0.020458
269.00000000000006,-0.019724
269.2,-0.0185109999999999
269.40000000000003,-0.018977
269.6,-0.0189319999999999
269.8,-0.018926
270.00000000000006,-0.0176739999999999
270.2,-0.0167559999999999
270.40000000000003,-0.0145250000000001
270.6,-0.0134149999999999
270.8,-0.013338
271.00000000000006,-0.015333
271.2,-0.016129
271.40000000000003,-0.0191460000000001
271.6,-0.0220599999999999
271.8,-0.023983
272.00000000000006,-0.0232689999999999
272.2,-0.0242010000000001
272.40000000000003,-0.0236400000000001
272.6,-0.0238370000000001
272.8,-0.0223870000000001
273.00000000000006,-0.023454
273.2,-0.0225349999999999
273.40000000000003,-0.0235819999999999
273.6,-0.0220150000000001
273.8,-0.0218009999999999
274.00000000000006,-0.0200960000000001
274.2,-0.02132
274.40000000000003,-0.020693
274.6,-0.0209730000000001
274.8,-0.0205319999999999
275.00000000000006,-0.0203600000000001
275.2,-0.018107
275.40000000000003,-0.0155739999999999
275.6,-0.0145109999999999
275.8,-0.0145729999999999
276.00000000000006,-0.0164349999999999
276.2,-0.0162710000000001
276.40000000000003,-0.017463
276.6,-0.018758
276.8,-0.021948
277.00000000000006,-0.0233449999999999
277.2,-0.0252000000000001
277.40000000000003,-0.0273130000000001
277.6,-0.0288429999999999
277.8,-0.0284539999999999
278.00000000000006,-0.027163
278.2,-0.0275510000000001
278.40000000000003,-0.0270110000000001
278.6,-0.0243710000000001
278.8,-0.0227049999999999
279.00000000000006,-0.0221040000000001
279.2,-0.020915
279.40000000000003,-0.018029
279.6,-0.0176309999999999
279.8,-0.0176819999999999
280.00000000000006,-0.0190319999999999
280.2,-0.020318
280.40000000000003,-0.023713
280.6,-0.0269760000000001
280.8,-0.027533
281.00000000000006,-0.026842
281.2,-0.025948
281.40000000000003,-0.025403
281.6,-0.023646
281.8,-0.0230030000000001
282.00000000000006,-0.0217359999999999
282.2,-0.0217519999999999
282.40000000000003,-0.0215180000000001
282.6,-0.0210879999999999
282.8,-0.019727
283.00000000000006,-0.018224
283.2,-0.016979
283.40000000000003,-0.0153290000000001
283.6,-0.0142900000000001
283.8,-0.012431
284.00000000000006,-0.009951
284.2,-0.0086220000000001
284.40000000000003,-0.008774
284.6,-0.009276
284.8,-0.0117899999999999
285.00000000000006,-0.0158100000000001
285.2,-0.0191559999999999
285.40000000000003,-0.0203390000000001
285.6,-0.021465
285.8,-0.0231719999999999
286.00000000000006,-0.0248730000000001
286.2,-0.0246090000000001
286.40000000000003,-0.0241489999999999
286.6,-0.0240070000000001
286.8,-0.0216419999999999
287.00000000000006,-0.017697
287.2,-0.014712
287.40000000000003,-0.013622
287.6,-0.0134640000000001
287.8,-0.015158
288.00000000000006,-0.0167520000000001
288.2,-0.0180610000000001
288.40000000000003,-0.019257
288.6,-0.0200010000000001
288.8,-0.0187399999999999
289.00000000000006,-0.0174579999999999
289.2,-0.0146250000000001
289.40000000000003,-0.011892
289.6,-0.0092290000000001
289.8,-0.0090639999999999
290.00000000000006,-0.0100690000000001
290.2,-0.01278
290.40000000000003,-0.014162
290.6,-0.014863
290.8,-0.0152750000000001
291.00000000000006,-0.0169559999999999
291.2,-0.018691
291.40000000000003,-0.0208650000000001
291.6,-0.022261
291.8,-0.0222519999999999
292.00000000000006,-0.022397
292.2,-0.023462
292.40000000000003,-0.024566
292.6,-0.024029
292.8,-0.024594
293.00000000000006,-0.0248639999999999
293.2,-0.0248030000000001
293.40000000000003,-0.0229289999999999
293.6,-0.0218720000000001
293.8,-0.0198599999999999
294.00000000000006,-0.01726
294.2,-0.0147060000000001
294.40000000000003,-0.015257
294.6,-0.0177929999999999
294.8,-0.0198610000000001
295.00000000000006,-0.0203189999999999
295.2,-0.0193020000000001
295.40000000000003,-0.017311
295.6,-0.0161010000000001
295.8,-0.017152
296.00000000000006,-0.0199450000000001
296.2,-0.0211559999999999
296.40000000000003,-0.021141
296.6,-0.0212860000000001
296.8,-0.0214469999999999
297.00000000000006,-0.0205410000000001
297.2,-0.019829
297.40000000000003,-0.019616
297.6,-0.019498
297.8,-0.01835
298.00000000000006,-0.0174499999999999
298.2,-0.017006
298.40000000000003,-0.0181630000000001
298.6,-0.018858
298.8,-0.020413
299.00000000000006,-0.0214640000000001
299.2,-0.020677
299.40000000000003,-0.0188289999999999
299.6,-0.017408
299.8,-0.0162379999999999
299.99999999999994,-0.015529
300.2,-0.0141599999999999
300.3999999999999,-0.011927
300.6,-0.011113
300.8,-0.0102109999999999
300.99999999999994,-0.01007
301.2,-0.0106809999999999
301.3999999999999,-0.0136319999999999
301.6,-0.015602
301.8,-0.0175109999999999
301.99999999999994,-0.017939
302.2,-0.0182229999999999
302.3999999999999,-0.015858
302.6,-0.013846
302.8,-0.0105769999999999
302.99999999999994,-0.0107319999999999
303.2,-0.0106969999999999
303.3999999999999,-0.010155
303.6,-0.010305
303.8,-0.0119759999999999
303.99999999999994,-0.0142689999999999
304.2,-0.016954
304.3999999999999,-0.020634
304.6,-0.02241
304.8,-0.0220709999999999
304.99999999999994,-0.0187009999999999
305.2,-0.0127909999999999
305.3999999999999,-0.00965
305.6,-0.007765
305.8,-0.0078049999999999
305.99999999999994,-0.0076209999999999
306.2,-0.0113609999999999
306.3999999999999,-0.012112
306.6,-0.0129099999999999
306.8,-0.0125709999999999
306.99999999999994,-0.012973
307.2,-0.0132879999999999
307.3999999999999,-0.0165069999999999
307.6,-0.0182229999999999
307.8,-0.019198
307.99999999999994,-0.019212
308.2,-0.018626
308.3999999999999,-0.0163929999999999
308.6,-0.0166009999999999
308.8,-0.0158519999999999
308.99999999999994,-0.0151369999999999
309.2,-0.012653
309.3999999999999,-0.0105619999999999
309.6,-0.008664
309.8,-0.0081539999999999
309.99999999999994,-0.008391
310.2,-0.010081
310.3999999999999,-0.0115199999999999
310.6,-0.011171
310.8,-0.011274
310.99999999999994,-0.012622
311.2,-0.012965
311.3999999999999,-0.012947
311.6,-0.0127059999999999
311.8,-0.0127869999999999
311.99999999999994,-0.0120879999999999
312.2,-0.0117169999999999
312.3999999999999,-0.0126739999999999
312.6,-0.0148629999999999
312.8,-0.0169319999999999
312.99999999999994,-0.0159559999999999
313.2,-0.0153769999999999
313.3999999999999,-0.0150379999999999
313.6,-0.0164069999999999
313.8,-0.0179409999999999
313.99999999999994,-0.021961
314.2,-0.023965
314.3999999999999,-0.0254929999999999
314.6,-0.02366
314.8,-0.022888
314.99999999999994,-0.0193649999999999
315.2,-0.0167819999999999
315.3999999999999,-0.014437
315.6,-0.015101
315.8,-0.0145229999999999
315.99999999999994,-0.016185
316.2,-0.0198679999999999
316.3999999999999,-0.022479
316.6,-0.0211489999999999
316.8,-0.0190409999999999
316.99999999999994,-0.014502
317.2,-0.0101369999999999
317.3999999999999,-0.004831
317.6,-0.004356
317.8,-0.005518
317.99999999999994,-0.0100609999999999
318.2,-0.011464
318.3999999999999,-0.013036
318.6,-0.0155239999999999
318.8,-0.0172059999999999
318.99999999999994,-0.0169599999999999
319.2,-0.0175089999999999
319.3999999999999,-0.018835
319.6,-0.0154849999999999
319.8,-0.0109789999999999
319.99999999999994,-0.008989
320.2,-0.0080679999999999
320.3999999999999,-0.0083309999999999
320.6,-0.009765
320.8,-0.0125979999999999
320.99999999999994,-0.0143989999999999
321.2,-0.016429
321.3999999999999,-0.0160669999999999
321.6,-0.016491
321.8,-0.0170799999999999
321.99999999999994,-0.0170169999999999
322.2,-0.0156549999999999
322.3999999999999,-0.015992
322.6,-0.015298
322.8,-0.013436
322.99999999999994,-0.0116359999999999
323.2,-0.0119639999999999
323.3999999999999,-0.0120219999999999
323.6,-0.0132269999999999
323.8,-0.0147329999999999
323.99999999999994,-0.0173139999999999
324.2,-0.018862
324.3999999999999,-0.018916
324.6,-0.018271
324.8,-0.0179759999999999
324.99999999999994,-0.0171869999999999
325.2,-0.0152879999999999
325.3999999999999,-0.0154299999999999
325.6,-0.0166459999999999
325.8,-0.019275
325.99999999999994,-0.0196659999999999
326.2,-0.020706
326.3999999999999,-0.0198549999999999
326.6,-0.0176929999999999
326.8,-0.0153889999999999
326.99999999999994,-0.016549
327.2,-0.0187859999999999
327.3999999999999,-0.0215729999999999
327.6,-0.022599
327.8,-0.021997
327.99999999999994,-0.019927
328.2,-0.01912
328.3999999999999,-0.0177089999999999
328.6,-0.0172099999999999
328.8,-0.0158869999999999
328.99999999999994,-0.0152499999999999
329.2,-0.0134109999999999
329.3999999999999,-0.0137669999999999
329.6,-0.0146389999999999
329.8,-0.0176239999999999
329.99999999999994,-0.0183349999999999
330.2,-0.017529
330.3999999999999,-0.0150369999999999
330.6,-0.013541
330.8,-0.011831
330.99999999999994,-0.012533
331.2,-0.0152109999999999
331.3999999999999,-0.017217
331.6,-0.018865
331.8,-0.0195659999999999
331.99999999999994,-0.0200179999999999
332.2,-0.019514
332.3999999999999,-0.020247
332.6,-0.0212489999999999
332.8,-0.0216039999999999
332.99999999999994,-0.0198749999999999
333.2,-0.0168019999999999
333.3999999999999,-0.014951
333.6,-0.0132529999999999
333.8,-0.012287
333.99999999999994,-0.0125579999999999
334.2,-0.013418
334.3999999999999,-0.0139089999999999
334.6,-0.0150359999999999
334.8,-0.0152619999999999
334.99999999999994,-0.0160909999999999
335.2,-0.017521
335.3999999999999,-0.0187389999999999
335.6,-0.017718
335.8,-0.0166669999999999
335.99999999999994,-0.0166669999999999
336.2,-0.016537
336.3999999999999,-0.01453
336.6,-0.0122909999999999
336.8,-0.0115129999999999
336.99999999999994,-0.010429
337.2,-0.0093199999999999
337.3999999999999,-0.0110059999999999
337.6,-0.014553
337.8,-0.0164499999999999
337.99999999999994,-0.016526
338.2,-0.015765
338.3999999999999,-0.013862
338.6,-0.012383
338.8,-0.0135129999999999
338.99999999999994,-0.0144659999999999
339.2,-0.0169799999999999
339.3999999999999,-0.0196779999999999
339.6,-0.0209909999999999
339.8,-0.0192289999999999
339.99999999999994,-0.0168789999999999
340.2,-0.015078
340.3999999999999,-0.013714
340.6,-0.01222
340.8,-0.012785
340.99999999999994,-0.014406
341.2,-0.0162769999999999
341.3999999999999,-0.0174159999999999
341.6,-0.018823
341.8,-0.0205499999999999
341.99999999999994,-0.0225459999999999
342.2,-0.0224539999999999
342.3999999999999,-0.021707
342.6,-0.020803
342.8,-0.019889
342.99999999999994,-0.0194159999999999
343.2,-0.0197019999999999
343.3999999999999,-0.019583
343.6,-0.020745
343.8,-0.021448
343.99999999999994,-0.0211419999999999
344.2,-0.020459
344.3999999999999,-0.0196659999999999
344.6,-0.0189139999999999
344.8,-0.018598
344.99999999999994,-0.019386
345.2,-0.0192309999999999
345.3999999999999,-0.0182759999999999
345.6,-0.015896
345.8,-0.014572
345.99999999999994,-0.0135499999999999
346.2,-0.0149169999999999
346.3999999999999,-0.018475
346.6,-0.0236079999999999
346.8,-0.0248509999999999
346.99999999999994,-0.023946
347.2,-0.0214809999999999
347.3999999999999,-0.0195359999999999
347.6,-0.0151829999999999
347.8,-0.014568
347.99999999999994,-0.016252
348.2,-0.0176009999999999
348.3999999999999,-0.0168789999999999
348.6,-0.0180259999999999
348.8,-0.017085
348.99999999999994,-0.0148019999999999
349.2,-0.013711
349.3999999999999,-0.0119709999999999
349.6,-0.011382
349.8,-0.0120029999999999
349.99999999999994,-0.0135699999999999
350.2,-0.0138789999999999
350.3999999999999,-0.016085
350.6,-0.018185
350.8,-0.019981
350.99999999999994,-0.021861
351.2,-0.0228089999999999
351.3999999999999,-0.02183
351.6,-0.0195589999999999
351.8,-0.017433
351.99999999999994,-0.016934
352.2,-0.017483
352.3999999999999,-0.019911
352.6,-0.0207589999999999
352.8,-0.0235619999999999
352.99999999999994,-0.024374
353.2,-0.0251529999999999
353.3999999999999,-0.0241289999999999
353.6,-0.024934
353.8,-0.023718
353.99999999999994,-0.0211339999999999
354.2,-0.0177399999999999
354.3999999999999,-0.0161249999999999
354.6,-0.015406
354.8,-0.014773
354.99999999999994,-0.014452
355.2,-0.016598
355.3999999999999,-0.019302
355.6,-0.021008
355.8,-0.021139
355.99999999999994,-0.022158
356.2,-0.020846
356.3999999999999,-0.020618
356.6,-0.0215959999999999
356.8,-0.0220049999999999
356.99999999999994,-0.0211059999999999
357.2,-0.023348
357.3999999999999,-0.023845
357.6,-0.0215959999999999
357.8,-0.0210049999999999
357.99999999999994,-0.0216669999999999
358.2,-0.020737
358.3999999999999,-0.020089
358.6,-0.0214079999999999
358.8,-0.0228749999999999
358.99999999999994,-0.0238359999999999
359.2,-0.0226939999999999
359.3999999999999,-0.0208249999999999
359.6,-0.0182879999999999
359.8,-0.0157
359.99999999999994,-0.0150329999999999
360.2,-0.017359
360.3999999999999,-0.019734
360.6,-0.021267
360.8,-0.0209899999999999
361.0,-0.020749
361.2,-0.0194489999999999
361.3999999999999,-0.0194419999999999
361.6,-0.0193609999999999
361.8,-0.021452
362.0,-0.0226149999999999
362.2,-0.022989
362.3999999999999,-0.0214889999999999
362.6,-0.0208589999999999
362.8,-0.019001
363.0,-0.0176539999999999
363.2,-0.018503
363.3999999999999,-0.0213079999999999
363.6,-0.0227049999999999
363.8,-0.0245119999999999
364.0,-0.024074
364.2,-0.0238319999999999
364.3999999999999,-0.0225649999999999
364.6,-0.0238009999999999
364.8,-0.0250059999999999
365.0,-0.0273489999999999
365.2,-0.027962
365.3999999999999,-0.0282959999999999
365.6,-0.0273069999999999
365.8,-0.025838
366.0,-0.0241649999999999
366.2,-0.0224919999999999
366.3999999999999,-0.0205459999999999
366.6,-0.019633
366.8,-0.0189399999999999
367.0,-0.019768
367.2,-0.0194189999999999
367.3999999999999,-0.0208909999999999
367.6,-0.022571
367.8,-0.0235079999999999
368.0,-0.0215499999999999
368.2,-0.0208639999999999
368.3999999999999,-0.0201529999999999
368.6,-0.0181829999999999
368.8,-0.018352
369.0,-0.019957
369.2,-0.0221559999999999
369.3999999999999,-0.0229589999999999
369.6,-0.0246109999999999
369.8,-0.0254719999999999
370.0,-0.0269469999999999
370.2,-0.0273449999999999
370.3999999999999,-0.027532
370.6,-0.0257809999999999
370.8,-0.0240759999999999
371.0,-0.020799
371.2,-0.017796
371.3999999999999,-0.015086
371.6,-0.01414
371.8,-0.014167
372.0,-0.0143449999999999
372.2,-0.015228
372.3999999999999,-0.0177009999999999
372.6,-0.020923
372.8,-0.022139
373.0,-0.024634
373.2,-0.0263609999999999
373.3999999999999,-0.0264339999999999
373.6,-0.0249719999999999
373.8,-0.02397
374.0,-0.0229859999999999
374.2,-0.0222909999999999
374.3999999999999,-0.021112
374.6,-0.019513
374.8,-0.017468
375.0,-0.016248
375.2,-0.014664
375.3999999999999,-0.01466
375.6,-0.0163149999999999
375.8,-0.019522
376.0,-0.0204039999999999
376.2,-0.0219439999999999
376.3999999999999,-0.0229629999999999
376.6,-0.0239289999999999
376.8,-0.0231169999999999
377.0,-0.0241989999999999
377.2,-0.0229019999999999
377.3999999999999,-0.0217399999999999
377.6,-0.0193069999999999
377.8,-0.019602
378.0,-0.0193809999999999
378.2,-0.021213
378.3999999999999,-0.0236859999999999
378.6,-0.0256159999999999
378.8,-0.0262029999999999
379.0,-0.024764
379.2,-0.0242339999999999
379.3999999999999,-0.0240059999999999
379.6,-0.0239489999999999
379.8,-0.0245199999999999
380.0,-0.0264389999999999
380.2,-0.027433
380.3999999999999,-0.0256189999999999
380.6,-0.0260639999999999
380.8,-0.0241959999999999
381.0,-0.022943
381.2,-0.0213299999999999
381.3999999999999,-0.0217119999999999
381.6,-0.0183069999999999
381.8,-0.0173539999999999
382.0,-0.0154339999999999
382.2,-0.0158989999999999
382.3999999999999,-0.0160749999999999
382.6,-0.017719
382.8,-0.0183069999999999
383.0,-0.0201609999999999
383.2,-0.0202959999999999
383.3999999999999,-0.020247
383.6,-0.018567
383.8,-0.017429
384.0,-0.0159439999999999
384.2,-0.0161099999999999
384.3999999999999,-0.017464
384.6,-0.019741
384.8,-0.0211139999999999
385.0,-0.023428
385.2,-0.023127
385.3999999999999,-0.022799
385.6,-0.0234179999999999
385.8,-0.024012
386.0,-0.0238239999999999
386.2,-0.02302
386.3999999999999,-0.0209909999999999
386.6,-0.020105
386.8,-0.021046
387.0,-0.021163
387.2,-0.021437
387.3999999999999,-0.021424
387.6,-0.0214699999999999
387.8,-0.0191479999999999
388.0,-0.0175159999999999
388.2,-0.0184309999999999
388.3999999999999,-0.0205079999999999
388.6,-0.021958
388.8,-0.0251169999999999
389.0,-0.0286009999999999
389.2,-0.030027
389.3999999999999,-0.030112
389.6,-0.0301919999999999
389.8,-0.028687
390.0,-0.026158
390.2,-0.024702
390.3999999999999,-0.024468
390.6,-0.025401
390.8,-0.0275159999999999
391.0,-0.0288589999999999
391.2,-0.029467
391.3999999999999,-0.030146
391.6,-0.03046
391.8,-0.03012
392.0,-0.030818
392.2,-0.031213
392.3999999999999,-0.0312829999999999
392.6,-0.0292339999999999
392.8,-0.027684
393.0,-0.0266919999999999
393.2,-0.0262869999999999
393.3999999999999,-0.024961
393.6,-0.025518
393.8,-0.0250709999999999
394.0,-0.0233759999999999
394.2,-0.020649
394.3999999999999,-0.0206509999999999
394.6,-0.019482
394.8,-0.019378
395.0,-0.019746
395.2,-0.0212809999999999
395.3999999999999,-0.0218509999999999
395.6,-0.0237169999999999
395.8,-0.0254219999999999
396.0,-0.027973
396.2,-0.028621
396.3999999999999,-0.0285529999999999
396.6,-0.0275779999999999
396.8,-0.0260949999999999
397.0,-0.02393
397.2,-0.0235149999999999
397.3999999999999,-0.0222249999999999
397.6,-0.018174
397.8,-0.014699
398.0,-0.0128009999999999
398.2,-0.0123119999999999
398.3999999999999,-0.0145699999999999
398.6,-0.0201289999999999
398.8,-0.0253109999999999
399.0,-0.0281559999999999
399.2,-0.0290979999999999
399.3999999999999,-0.026853
399.6,-0.023035
399.8,-0.020672
400.0,-0.0217779999999999
400.2,-0.023424
400.3999999999999,-0.0251129999999999
400.6,-0.0268929999999999
400.8,-0.0268439999999999
401.0,-0.024197
401.2,-0.020162
401.3999999999999,-0.0175389999999999
401.6,-0.0168129999999999
401.8,-0.017707
402.0,-0.0197429999999999
402.2,-0.024386
402.3999999999999,-0.0286359999999999
402.6,-0.031262
402.8,-0.032371
403.0,-0.0318349999999999
403.2,-0.0297389999999999
403.3999999999999,-0.0272689999999999
403.6,-0.0273499999999999
403.8,-0.0276109999999999
404.0,-0.0272869999999999
404.2,-0.025232
404.3999999999999,-0.024634
404.6,-0.0226189999999999
404.8,-0.0229749999999999
405.0,-0.023888
405.2,-0.0274889999999999
405.3999999999999,-0.0285929999999999
405.6,-0.028502
405.8,-0.0251129999999999
406.0,-0.0241109999999999
406.2,-0.024324
406.3999999999999,-0.025706
406.6,-0.024962
406.8,-0.0256669999999999
407.0,-0.025278
407.2,-0.025042
407.3999999999999,-0.0241949999999999
407.6,-0.0266149999999999
407.8,-0.0286109999999999
408.0,-0.0290139999999999
408.2,-0.025803
408.3999999999999,-0.0234079999999999
408.6,-0.0209129999999999
408.8,-0.020467
409.0,-0.0218289999999999
409.2,-0.0242069999999999
409.3999999999999,-0.026541
409.6,-0.027715
409.8,-0.02698
410.0,-0.0253079999999999
410.2,-0.0236929999999999
410.3999999999999,-0.021965
410.6,-0.0219359999999999
410.8,-0.0232759999999999
411.0,-0.024768
411.2,-0.027822
411.3999999999999,-0.031734
411.6,-0.035208
411.8,-0.0373019999999999
412.0,-0.038301
412.2,-0.0366819999999999
412.3999999999999,-0.0329319999999999
412.6,-0.0294579999999999
412.8,-0.0265079999999999
413.0,-0.024301
413.2,-0.022082
413.3999999999999,-0.0216129999999999
413.6,-0.0201909999999999
413.8,-0.0195159999999999
414.0,-0.0190639999999999
414.2,-0.022491
414.3999999999999,-0.0241919999999999
414.6,-0.0261689999999999
414.8,-0.027231
415.0,-0.029309
415.2,-0.0276819999999999
415.3999999999999,-0.0271479999999999
415.6,-0.026521
415.8,-0.0279629999999999
416.0,-0.02776
416.2,-0.0284069999999999
416.3999999999999,-0.027741
416.6,-0.027015
416.8,-0.023966
417.0,-0.0223099999999999
417.2,-0.0217549999999999
417.3999999999999,-0.0243369999999999
417.6,-0.0278319999999999
417.8,-0.0303219999999999
418.0,-0.031795
418.2,-0.0326459999999999
418.3999999999999,-0.0314219999999999
418.6,-0.0282749999999999
418.8,-0.026568
419.0,-0.026051
419.2,-0.025973
419.3999999999999,-0.026375
419.6,-0.0271069999999999
419.8,-0.0268439999999999
420.0,-0.026262
420.2,-0.0250949999999999
420.3999999999999,-0.0240839999999999
420.6,-0.022965
420.8,-0.0229479999999999
421.0,-0.022247
421.2,-0.0235999999999999
421.3999999999999,-0.0252839999999999
421.6,-0.0279909999999999
421.8,-0.02907
422.0,-0.0300559999999999
422.2,-0.028572
422.3999999999999,-0.02598
422.6,-0.0232909999999999
422.8,-0.0228859999999999
423.0,-0.0252679999999999
423.2,-0.028383
423.3999999999999,-0.0316079999999999
423.6,-0.03164
423.8,-0.031328
424.0,-0.0282149999999999
424.2,-0.025181
424.3999999999999,-0.0224269999999999
424.6,-0.0228709999999999
424.8,-0.0221299999999999
425.0,-0.0221109999999999
425.2,-0.0224269999999999
425.3999999999999,-0.0257739999999999
425.6,-0.0286589999999999
425.8,-0.032112
426.0,-0.0342949999999999
426.2,-0.034301
426.3999999999999,-0.031066
426.6,-0.028293
426.8,-0.025625
427.0,-0.0233919999999999
427.2,-0.0229169999999999
427.3999999999999,-0.0238199999999999
427.6,-0.025819
427.8,-0.027691
428.0,-0.0301799999999999
428.2,-0.032606
428.3999999999999,-0.0332519999999999
428.6,-0.0319199999999999
428.8,-0.0299859999999999
429.0,-0.0282499999999999
429.2,-0.027544
429.3999999999999,-0.0280799999999999
429.6,-0.029078
429.8,-0.031174
430.0,-0.033088
430.2,-0.031981
430.3999999999999,-0.030483
430.6,-0.0271359999999999
430.8,-0.025108
431.0,-0.022595
431.2,-0.0228329999999999
431.3999999999999,-0.022343
431.6,-0.024679
431.8,-0.025761
432.0,-0.027294
432.2,-0.0278869999999999
432.3999999999999,-0.029707
432.6,-0.0303029999999999
432.8,-0.02978
433.0,-0.0271609999999999
433.2,-0.024367
433.3999999999999,-0.022317
433.6,-0.023015
433.8,-0.0243499999999999
434.0,-0.027119
434.2,-0.0292069999999999
434.3999999999999,-0.0295419999999999
434.6,-0.029312
434.8,-0.0284119999999999
435.0,-0.0282869999999999
435.2,-0.028525
435.3999999999999,-0.0287089999999999
435.6,-0.027429
435.8,-0.0264149999999999
436.0,-0.0253349999999999
436.2,-0.0241959999999999
436.3999999999999,-0.023209
436.6,-0.023903
436.8,-0.026953
437.0,-0.028498
437.2,-0.030626
437.3999999999999,-0.032451
437.6,-0.032942
437.8,-0.0302529999999999
438.0,-0.028996
438.2,-0.028606
438.3999999999999,-0.0289639999999999
438.6,-0.0306879999999999
438.8,-0.034026
439.0,-0.0365109999999999
439.2,-0.0360049999999999
439.3999999999999,-0.0346649999999999
439.6,-0.0323809999999999
439.8,-0.0293919999999999
440.0,-0.027197
440.2,-0.027518
440.3999999999999,-0.0276119999999999
440.6,-0.02641
440.8,-0.026235
441.0,-0.026768
441.2,-0.026625
441.3999999999999,-0.0261989999999999
441.6,-0.0266689999999999
441.8,-0.0260049999999999
442.0,-0.0242729999999999
442.2,-0.0236119999999999
442.3999999999999,-0.024166
442.6,-0.024441
442.8,-0.025617
443.0,-0.027425
443.2,-0.028799
443.3999999999999,-0.0287749999999999
443.6,-0.0287629999999999
443.8,-0.0290129999999999
444.0,-0.0299389999999999
444.2,-0.0306079999999999
444.3999999999999,-0.032393
444.6,-0.034509
444.8,-0.035559
445.0,-0.0346499999999999
445.2,-0.0325769999999999
445.3999999999999,-0.031397
445.6,-0.0293379999999999
445.8,-0.027487
446.0,-0.0267169999999999
446.2,-0.0270789999999999
446.3999999999999,-0.027784
446.6,-0.0297859999999999
446.8,-0.0301019999999999
447.0,-0.029799
447.2,-0.0277779999999999
447.3999999999999,-0.02659
447.6,-0.0243379999999999
447.8,-0.02466
448.0,-0.0252679999999999
448.2,-0.0290979999999999
448.3999999999999,-0.031973
448.6,-0.0346339999999999
448.8,-0.0366649999999999
449.0,-0.0371869999999999
449.2,-0.0359479999999999
449.3999999999999,-0.033034
449.6,-0.0309409999999999
449.8,-0.0295149999999999
450.0,-0.029602
450.2,-0.029471
450.3999999999999,-0.029228
450.6,-0.0274889999999999
450.8,-0.024664
451.0,-0.022656
451.2,-0.0215039999999999
451.3999999999999,-0.0209719999999999
451.6,-0.0219129999999999
451.8,-0.0240249999999999
452.0,-0.0252
452.2,-0.0274649999999999
452.3999999999999,-0.030494
452.6,-0.035428
452.8,-0.038452
453.0,-0.0404849999999999
453.2,-0.0389469999999999
453.3999999999999,-0.037474
453.6,-0.0342679999999999
453.8,-0.0337079999999999
454.0,-0.033455
454.2,-0.0347899999999999
454.3999999999999,-0.036057
454.6,-0.037505
454.8,-0.0359319999999999
455.0,-0.033818
455.2,-0.0317049999999999
455.3999999999999,-0.0300939999999999
455.6,-0.029826
455.8,-0.030456
456.0,-0.0313849999999999
456.2,-0.031525
456.3999999999999,-0.030128
456.6,-0.026795
456.8,-0.026456
457.0,-0.027027
457.2,-0.029073
457.3999999999999,-0.0308699999999999
457.6,-0.0333559999999999
457.8,-0.03337
458.0,-0.032474
458.2,-0.0314499999999999
458.3999999999999,-0.0316509999999999
458.6,-0.031212
458.8,-0.0291169999999999
459.0,-0.0289119999999999
459.2,-0.029513
459.3999999999999,-0.0303919999999999
459.6,-0.0309329999999999
459.8,-0.0329369999999999
460.0,-0.0337229999999999
460.2,-0.033026
460.3999999999999,-0.0325929999999999
460.6,-0.030972
460.8,-0.0303289999999999
461.0,-0.029428
461.2,-0.0302689999999999
461.3999999999999,-0.0314799999999999
461.6,-0.033455
461.8,-0.034061
462.0,-0.0363059999999999
462.2,-0.0376819999999999
462.3999999999999,-0.0358749999999999
462.6,-0.035656
462.8,-0.0346889999999999
463.0,-0.0339509999999999
463.2,-0.0331449999999999
463.3999999999999,-0.033927
463.6,-0.033949
463.8,-0.034802
464.0,-0.0350319999999999
464.2,-0.034856
464.3999999999999,-0.034676
464.6,-0.0345579999999999
464.8,-0.0346419999999999
465.0,-0.0361209999999999
465.2,-0.037012
465.3999999999999,-0.0368739999999999
465.6,-0.036497
465.8,-0.0366419999999999
466.0,-0.0360279999999999
466.2,-0.03556
466.3999999999999,-0.036216
466.6,-0.0354189999999999
466.8,-0.034729
467.0,-0.0330049999999999
467.2,-0.03295
467.3999999999999,-0.03346
467.6,-0.0344839999999999
467.8,-0.033903
468.0,-0.0314099999999999
468.2,-0.0287509999999999
468.3999999999999,-0.027819
468.6,-0.029606
468.8,-0.0327539999999999
469.0,-0.036331
469.2,-0.037676
469.3999999999999,-0.036829
469.6,-0.034475
469.8,-0.0327269999999999
470.0,-0.0331639999999999
470.2,-0.034895
470.3999999999999,-0.036223
470.6,-0.0373679999999999
470.8,-0.037443
471.0,-0.0352489999999999
471.2,-0.0345539999999999
471.3999999999999,-0.034752
471.6,-0.0339519999999999
471.8,-0.0336769999999999
472.0,-0.033278
472.2,-0.0327309999999999
472.3999999999999,-0.0304839999999999
472.6,-0.028308
472.8,-0.0264069999999999
473.0,-0.0288629999999999
473.2,-0.0299699999999999
473.3999999999999,-0.0302919999999999
473.6,-0.030945
473.8,-0.03198
474.0,-0.0321319999999999
474.2,-0.032968
474.3999999999999,-0.035277
474.6,-0.036513
474.8,-0.0365649999999999
475.0,-0.036313
475.2,-0.0352439999999999
475.3999999999999,-0.035398
475.6,-0.035633
475.8,-0.0376769999999999
476.0,-0.036389
476.2,-0.0357079999999999
476.3999999999999,-0.034525
476.6,-0.035012
476.8,-0.032332
477.0,-0.0305809999999999
477.2,-0.0284189999999999
477.3999999999999,-0.0275069999999999
477.6,-0.027227
477.8,-0.0284539999999999
478.0,-0.03146
478.2,-0.0370979999999999
478.3999999999999,-0.0399589999999999
478.6,-0.0410439999999999
478.8,-0.0396259999999999
479.0,-0.039247
479.2,-0.0378269999999999
479.3999999999999,-0.0361679999999999
479.6,-0.0339509999999999
479.8,-0.0342379999999999
480.0,-0.0341629999999999
480.2,-0.0321909999999999
480.3999999999999,-0.031626
480.6,-0.0318699999999999
480.8,-0.033096
481.0,-0.033675
481.2,-0.0347319999999999
481.3999999999999,-0.036008
481.6,-0.036486
481.8,-0.034277
482.0,-0.030698
482.2,-0.028406
482.3999999999999,-0.0259089999999999
482.6,-0.0261099999999999
482.8,-0.0290679999999999
483.0,-0.0326919999999999
483.2,-0.036942
483.3999999999999,-0.0397929999999999
483.6,-0.0403479999999999
483.8,-0.0406809999999999
484.0,-0.0413179999999999
484.2,-0.040254
484.3999999999999,-0.0398129999999999
484.6,-0.041085
484.8,-0.0417579999999999
485.0,-0.0405429999999999
485.2,-0.0387149999999999
485.3999999999999,-0.036397
485.6,-0.035436
485.8,-0.034428
486.0,-0.0346619999999999
486.2,-0.034915
486.3999999999999,-0.0367079999999999
486.6,-0.036578
486.8,-0.0368629999999999
487.0,-0.0367239999999999
487.2,-0.0359819999999999
487.3999999999999,-0.034155
487.6,-0.0334489999999999
487.8,-0.032255
488.0,-0.0325729999999999
488.2,-0.033599
488.3999999999999,-0.035066
488.6,-0.033872
488.8,-0.033107
489.0,-0.032262
489.2,-0.0323729999999999
489.3999999999999,-0.032938
489.6,-0.0350099999999999
489.8,-0.0373209999999999
490.0,-0.0400749999999999
490.2,-0.041679
490.3999999999999,-0.0421139999999999
490.6,-0.0422259999999999
490.8,-0.041174
491.0,-0.0380739999999999
491.2,-0.0345069999999999
491.3999999999999,-0.032057
491.6,-0.031505
491.8,-0.030517
492.0,-0.0306279999999999
492.2,-0.032115
492.3999999999999,-0.033525
492.6,-0.034016
492.8,-0.0347429999999999
493.0,-0.0359749999999999
493.2,-0.03583
493.3999999999999,-0.0354989999999999
493.6,-0.0343029999999999
493.8,-0.0327089999999999
494.0,-0.0319749999999999
494.2,-0.0327669999999999
494.3999999999999,-0.036378
494.6,-0.0391719999999999
494.8,-0.041676
495.0,-0.042436
495.2,-0.043648
495.3999999999999,-0.0420199999999999
495.6,-0.0421249999999999
495.8,-0.042645
496.0,-0.0431369999999999
496.2,-0.042502
496.3999999999999,-0.042285
496.6,-0.041408
496.8,-0.0407959999999999
497.0,-0.040556
497.2,-0.039842
497.3999999999999,-0.0392249999999999
497.6,-0.0382209999999999
497.8,-0.0388859999999999
498.0,-0.040018
498.2,-0.0420359999999999
498.3999999999999,-0.042837
498.6,-0.0434029999999999
498.8,-0.042045
499.0,-0.041398
499.2,-0.03978
499.3999999999999,-0.0397199999999999
499.6,-0.0391049999999999
499.8,-0.0396349999999999
500.0,-0.039861
500.2,-0.040058
500.3999999999999,-0.0381369999999999
500.6,-0.0373419999999999
500.8,-0.0373379999999999
501.0,-0.035922
501.2,-0.0355759999999999
501.3999999999999,-0.0364489999999999
501.6,-0.0371569999999999
501.8,-0.0370139999999999
502.0,-0.0383689999999999
502.2,-0.038456
502.3999999999999,-0.038262
502.6,-0.0389929999999999
502.8,-0.03873
503.0,-0.0380179999999999
503.2,-0.0383879999999999
503.3999999999999,-0.0383789999999999
503.6,-0.036765
503.8,-0.0351299999999999
504.0,-0.0326039999999999
504.2,-0.0313989999999999
504.3999999999999,-0.0322789999999999
504.6,-0.0342289999999999
504.8,-0.036633
505.0,-0.040555
505.2,-0.0422289999999999
505.3999999999999,-0.0431319999999999
505.6,-0.04335
505.8,-0.043409
506.0,-0.0415949999999999
506.2,-0.0395809999999999
506.3999999999999,-0.0388279999999999
506.6,-0.04039
506.8,-0.043718
507.0,-0.0473749999999999
507.2,-0.0500709999999999
507.3999999999999,-0.049945
507.6,-0.047381
507.8,-0.043837
508.0,-0.0409049999999999
508.2,-0.040764
508.3999999999999,-0.039313
508.6,-0.0376819999999999
508.8,-0.0364529999999999
509.0,-0.0364689999999999
509.2,-0.0361629999999999
509.3999999999999,-0.0393109999999999
509.6,-0.04315
509.8,-0.0457889999999999
510.0,-0.0456259999999999
510.2,-0.043162
510.3999999999999,-0.039506
510.6,-0.0351559999999999
510.8,-0.0337359999999999
511.0,-0.0349289999999999
511.2,-0.037676
511.3999999999999,-0.039748
511.6,-0.041761
511.8,-0.0427999999999999
512.0,-0.041868
512.2,-0.040088
512.3999999999999,-0.038614
512.5999999999999,-0.0378619999999999
512.8,-0.037571
513.0,-0.0368589999999999
513.2,-0.037644
513.3999999999999,-0.0375689999999999
513.5999999999999,-0.0381099999999999
513.8,-0.0364219999999999
514.0,-0.0362609999999999
514.2,-0.034605
514.3999999999999,-0.0339089999999999
514.5999999999999,-0.0323459999999999
514.8,-0.032788
515.0,-0.034497
515.2,-0.037131
515.3999999999999,-0.03947
515.5999999999999,-0.041649
515.8,-0.040212
516.0,-0.0377929999999999
516.2,-0.0363
516.3999999999999,-0.0364069999999999
516.5999999999999,-0.0365459999999999
516.8,-0.038208
517.0,-0.038567
517.2,-0.037656
517.3999999999999,-0.037236
517.5999999999999,-0.0374889999999999
517.8,-0.0396509999999999
518.0,-0.040617
518.2,-0.042486
518.3999999999999,-0.0404849999999999
518.5999999999999,-0.0388629999999999
518.8,-0.0361299999999999
519.0,-0.0361679999999999
519.2,-0.0348269999999999
519.3999999999999,-0.0374349999999999
519.5999999999999,-0.0378309999999999
519.8,-0.0388779999999999
520.0,-0.0382759999999999
520.2,-0.0390329999999999
520.3999999999999,-0.0384839999999999
520.5999999999999,-0.039466
520.8,-0.0411399999999999
521.0,-0.0429209999999999
521.2,-0.043347
521.3999999999999,-0.0429739999999999
521.5999999999999,-0.0435759999999999
521.8,-0.0424259999999999
522.0,-0.041679
522.2,-0.04234
522.3999999999999,-0.043335
522.5999999999999,-0.0433559999999999
522.8,-0.042641
523.0,-0.0423299999999999
523.2,-0.0415139999999999
523.3999999999999,-0.041235
523.5999999999999,-0.0409429999999999
523.8,-0.0416239999999999
524.0,-0.040354
524.2,-0.039741
524.3999999999999,-0.038362
524.5999999999999,-0.0388209999999999
524.8,-0.0390059999999999
525.0,-0.0411249999999999
525.2,-0.040729
525.3999999999999,-0.040865
525.5999999999999,-0.0383369999999999
525.8,-0.0374689999999999
526.0,-0.037305
526.2,-0.0387969999999999
526.3999999999999,-0.039494
526.5999999999999,-0.0405409999999999
526.8,-0.0403649999999999
527.0,-0.0399629999999999
527.2,-0.042416
527.3999999999999,-0.045431
527.5999999999999,-0.0490399999999999
527.8,-0.049049
528.0,-0.0489319999999999
528.2,-0.045204
528.3999999999999,-0.042706
528.5999999999999,-0.039842
528.8,-0.0410139999999999
529.0,-0.040443
529.2,-0.0411589999999999
529.3999999999999,-0.0419249999999999
529.5999999999999,-0.0435649999999999
529.8,-0.0419889999999999
530.0,-0.042045
530.2,-0.0420629999999999
530.3999999999999,-0.0406889999999999
530.5999999999999,-0.03815
530.8,-0.0378429999999999
531.0,-0.0373599999999999
531.2,-0.0372649999999999
531.3999999999999,-0.0358319999999999
531.5999999999999,-0.0355929999999999
531.8,-0.036104
532.0,-0.038251
532.2,-0.0403719999999999
532.3999999999999,-0.044849
532.5999999999999,-0.0467299999999999
532.8,-0.0480939999999999
533.0,-0.045628
533.2,-0.043486
533.3999999999999,-0.042336
533.5999999999999,-0.043188
533.8,-0.043416
534.0,-0.0450939999999999
534.2,-0.0455079999999999
534.3999999999999,-0.0439439999999999
534.5999999999999,-0.0405259999999999
534.8,-0.0373109999999999
535.0,-0.0363909999999999
535.2,-0.037757
535.3999999999999,-0.0384889999999999
535.5999999999999,-0.04052
535.8,-0.0426259999999999
536.0,-0.042679
536.2,-0.040335
536.3999999999999,-0.0377619999999999
536.5999999999999,-0.0367859999999999
536.8,-0.0366969999999999
537.0,-0.0377499999999999
537.2,-0.0378039999999999
537.3999999999999,-0.0395149999999999
537.5999999999999,-0.0416309999999999
537.8,-0.043104
538.0,-0.0426499999999999
538.2,-0.0431169999999999
538.3999999999999,-0.0449669999999999
538.5999999999999,-0.045791
538.8,-0.045521
539.0,-0.0453409999999999
539.2,-0.0451489999999999
539.3999999999999,-0.0445659999999999
539.5999999999999,-0.0432749999999999
539.8,-0.0429479999999999
540.0,-0.0419939999999999
540.2,-0.045277
540.3999999999999,-0.0462289999999999
540.5999999999999,-0.047679
540.8,-0.0480369999999999
541.0,-0.0497579999999999
541.2,-0.0480249999999999
541.3999999999999,-0.04656
541.5999999999999,-0.0424459999999999
541.8,-0.039344
542.0,-0.0360949999999999
542.2,-0.0348039999999999
542.3999999999999,-0.0355699999999999
542.5999999999999,-0.0391589999999999
542.8,-0.043305
543.0,-0.0465949999999999
543.2,-0.0492299999999999
543.3999999999999,-0.0476619999999999
543.5999999999999,-0.0450829999999999
543.8,-0.040343
544.0,-0.038054
544.2,-0.03422
544.3999999999999,-0.0332149999999999
544.5999999999999,-0.0321799999999999
544.8,-0.0346199999999999
545.0,-0.0365079999999999
545.2,-0.0385039999999999
545.3999999999999,-0.040363
545.5999999999999,-0.042528
545.8,-0.0434539999999999
546.0,-0.0419479999999999
546.2,-0.0414879999999999
546.3999999999999,-0.040667
546.5999999999999,-0.039857
546.8,-0.040046
547.0,-0.04374
547.2,-0.045494
547.3999999999999,-0.0460599999999999
547.5999999999999,-0.0459889999999999
547.8,-0.0445619999999999
548.0,-0.041425
548.2,-0.0378779999999999
548.3999999999999,-0.035846
548.5999999999999,-0.0363649999999999
548.8,-0.036729
549.0,-0.0362839999999999
549.2,-0.0376839999999999
549.3999999999999,-0.0409669999999999
549.5999999999999,-0.0428079999999999
549.8,-0.042725
550.0,-0.043641
550.2,-0.0432169999999999
550.3999999999999,-0.042505
550.5999999999999,-0.040896
550.8,-0.041343
551.0,-0.0398939999999999
551.2,-0.0389239999999999
551.3999999999999,-0.0374229999999999
551.5999999999999,-0.0358979999999999
551.8,-0.0348439999999999
552.0,-0.035961
552.2,-0.038564
552.3999999999999,-0.0384579999999999
552.5999999999999,-0.0390319999999999
552.8,-0.039756
553.0,-0.039103
553.2,-0.037147
553.3999999999999,-0.0371589999999999
553.5999999999999,-0.038873
553.8,-0.0388819999999999
554.0,-0.040474
554.2,-0.0411979999999999
554.3999999999999,-0.0420019999999999
554.5999999999999,-0.041189
554.8,-0.0432129999999999
555.0,-0.0439129999999999
555.2,-0.0449199999999999
555.3999999999999,-0.0465769999999999
555.5999999999999,-0.049015
555.8,-0.0492709999999999
556.0,-0.0483179999999999
556.2,-0.046467
556.3999999999999,-0.042946
556.5999999999999,-0.0399359999999999
556.8,-0.0372339999999999
557.0,-0.036243
557.2,-0.0361089999999999
557.3999999999999,-0.0382339999999999
557.5999999999999,-0.040011
557.8,-0.041802
558.0,-0.0425919999999999
558.2,-0.0446309999999999
558.3999999999999,-0.044919
558.5999999999999,-0.043181
558.8,-0.0410399999999999
559.0,-0.03961
559.2,-0.038022
559.3999999999999,-0.0382059999999999
559.5999999999999,-0.040563
559.8,-0.0437969999999999
560.0,-0.046374
560.2,-0.047011
560.3999999999999,-0.045166
560.5999999999999,-0.0412019999999999
560.8,-0.038439
561.0,-0.038053
561.2,-0.038768
561.3999999999999,-0.0405309999999999
561.5999999999999,-0.044633
561.8,-0.0489749999999999
562.0,-0.051486
562.2,-0.053605
562.3999999999999,-0.0544379999999999
562.5999999999999,-0.053926
562.8,-0.0519979999999999
563.0,-0.0510439999999999
563.2,-0.0507969999999999
563.3999999999999,-0.051099
563.5999999999999,-0.05076
563.8,-0.0491509999999999
564.0,-0.046807
564.2,-0.0449269999999999
564.3999999999999,-0.042919
564.5999999999999,-0.04144
564.8,-0.041629
565.0,-0.0417359999999999
565.2,-0.0413489999999999
565.3999999999999,-0.0424909999999999
565.5999999999999,-0.0436069999999999
565.8,-0.0443999999999999
566.0,-0.0446609999999999
566.2,-0.0443559999999999
566.3999999999999,-0.042883
566.5999999999999,-0.0414959999999999
566.8,-0.0408399999999999
567.0,-0.0417119999999999
567.2,-0.0440169999999999
567.3999999999999,-0.044964
567.5999999999999,-0.0452639999999999
567.8,-0.0449479999999999
568.0,-0.0441719999999999
568.2,-0.043559
568.3999999999999,-0.043201
568.5999999999999,-0.0435529999999999
568.8,-0.0448579999999999
569.0,-0.044915
569.2,-0.0438159999999999
569.3999999999999,-0.0435409999999999
569.5999999999999,-0.043413
569.8,-0.041297
570.0,-0.0391519999999999
570.2,-0.03776
570.3999999999999,-0.0372249999999999
570.5999999999999,-0.037031
570.8,-0.0374579999999999
571.0,-0.038775
571.2,-0.0405659999999999
571.3999999999999,-0.042659
571.5999999999999,-0.04395
571.8,-0.0451549999999999
572.0,-0.0464139999999999
572.2,-0.0470469999999999
572.3999999999999,-0.045096
572.5999999999999,-0.043961
572.8,-0.041838
573.0,-0.0414339999999999
573.2,-0.040174
573.3999999999999,-0.0440009999999999
573.5999999999999,-0.0466959999999999
573.8,-0.051301
574.0,-0.0518769999999999
574.1999999999998,-0.0531599999999999
574.3999999999999,-0.050158
574.5999999999999,-0.0489629999999999
574.8,-0.0463869999999999
575.0,-0.045977
575.1999999999998,-0.0468469999999999
575.3999999999999,-0.048891
575.5999999999999,-0.0486719999999999
575.8,-0.0480319999999999
576.0,-0.0472799999999999
576.1999999999998,-0.044381
576.3999999999999,-0.041567
576.5999999999999,-0.040405
576.8,-0.0407649999999999
577.0,-0.041582
577.1999999999998,-0.040895
577.3999999999999,-0.040571
577.5999999999999,-0.039537
577.8,-0.0392749999999999
578.0,-0.0381489999999999
578.1999999999998,-0.0402679999999999
578.3999999999999,-0.0415449999999999
578.5999999999999,-0.0423459999999999
578.8,-0.042273
579.0,-0.04415
579.1999999999998,-0.043848
579.3999999999999,-0.043371
579.5999999999999,-0.0433999999999999
579.8,-0.0443649999999999
580.0,-0.0438769999999999
580.1999999999998,-0.044856
580.3999999999999,-0.045319
580.5999999999999,-0.045532
580.8,-0.0450369999999999
581.0,-0.045293
581.1999999999998,-0.0450519999999999
581.3999999999999,-0.0455529999999999
581.5999999999999,-0.0454679999999999
581.8,-0.0448309999999999
582.0,-0.044455
582.1999999999998,-0.043617
582.3999999999999,-0.0425109999999999
582.5999999999999,-0.042188
582.8,-0.042892
583.0,-0.042335
583.1999999999998,-0.0427539999999999
583.3999999999999,-0.0446879999999999
583.5999999999999,-0.0443839999999999
583.8,-0.042686
584.0,-0.0425379999999999
584.1999999999998,-0.0434909999999999
584.3999999999999,-0.044103
584.5999999999999,-0.0464109999999999
584.8,-0.0480399999999999
585.0,-0.0480929999999999
585.1999999999998,-0.0473799999999999
585.3999999999999,-0.046416
585.5999999999999,-0.047112
585.8,-0.0493559999999999
586.0,-0.0505409999999999
586.1999999999998,-0.0507379999999999
586.3999999999999,-0.050192
586.5999999999999,-0.0496659999999999
586.8,-0.049138
587.0,-0.0482059999999999
587.1999999999998,-0.0467809999999999
587.3999999999999,-0.044266
587.5999999999999,-0.041613
587.8,-0.0386959999999999
588.0,-0.0383219999999999
588.1999999999998,-0.037907
588.3999999999999,-0.039865
588.5999999999999,-0.041555
588.8,-0.043281
589.0,-0.044602
589.1999999999998,-0.045821
589.3999999999999,-0.0447279999999999
589.5999999999999,-0.042906
589.8,-0.0398549999999999
590.0,-0.03791
590.1999999999998,-0.038776
590.3999999999999,-0.039849
590.5999999999999,-0.0425969999999999
590.8,-0.045513
591.0,-0.046092
591.1999999999998,-0.0419209999999999
591.3999999999999,-0.0398389999999999
591.5999999999999,-0.0394039999999999
591.8,-0.0385429999999999
592.0,-0.0386269999999999
592.1999999999998,-0.0401239999999999
592.3999999999999,-0.0419239999999999
592.5999999999999,-0.0423109999999999
592.8,-0.0451979999999999
593.0,-0.047347
593.1999999999998,-0.0511199999999999
593.3999999999999,-0.052285
593.5999999999999,-0.051861
593.8,-0.04925
594.0,-0.0473379999999999
594.1999999999998,-0.0439699999999999
594.3999999999999,-0.0433649999999999
594.5999999999999,-0.043668
594.8,-0.0453909999999999
595.0,-0.045857
595.1999999999998,-0.0457039999999999
595.3999999999999,-0.0445929999999999
595.5999999999999,-0.042497
595.8,-0.038413
596.0,-0.036169
596.1999999999998,-0.034513
596.3999999999999,-0.0359
596.5999999999999,-0.0371089999999999
596.8,-0.0398899999999999
597.0,-0.039981
597.1999999999998,-0.041826
597.3999999999999,-0.04103
597.5999999999999,-0.0406609999999999
597.8,-0.0392519999999999
598.0,-0.041188
598.1999999999998,-0.0430749999999999
598.3999999999999,-0.0428859999999999
598.5999999999999,-0.0428739999999999
598.8,-0.0431
599.0,-0.042192
599.1999999999998,-0.039544
599.3999999999999,-0.0391249999999999
