Time (s),Shift (nm)
0.0,0.0
0.1999999999999886,0.0015469999999999
0.4000000000000341,0.0024809999999999
0.6000000000000227,0.0036649999999998
0.8000000000000114,0.0056519999999999
1.0,0.007756
1.2000000000000457,0.0077470000000001
1.400000000000034,0.0087350000000001
1.6000000000000227,0.0112100000000001
1.8000000000000114,0.0138009999999999
2.0,0.0174979999999997
2.200000000000045,0.0220980000000001
2.400000000000034,0.0232779999999999
2.6000000000000227,0.0210539999999999
2.800000000000012,0.0166189999999999
3.0,0.0127709999999998
3.200000000000045,0.0084089999999998
3.400000000000034,0.007616
3.6000000000000227,0.0087289999999997
3.8000000000000114,0.012032
4.0,0.0142099999999998
4.2000000000000455,0.0183779999999997
4.400000000000034,0.0204019999999998
4.600000000000023,0.0223520000000001
4.800000000000011,0.0214659999999997
5.0,0.020108
5.2000000000000455,0.017484
5.400000000000034,0.0167079999999999
5.600000000000023,0.014224
5.800000000000011,0.015101
6.0,0.015797
6.2000000000000455,0.018018
6.400000000000034,0.0175290000000001
6.600000000000023,0.0190529999999999
6.800000000000011,0.0179869999999997
7.0,0.018262
7.2000000000000455,0.0171640000000001
7.400000000000034,0.0181420000000001
7.600000000000023,0.0182649999999999
7.800000000000011,0.019765
8.0,0.0212499999999997
8.200000000000045,0.0230049999999999
8.400000000000034,0.0244539999999999
8.600000000000023,0.0250789999999998
8.800000000000011,0.0230510000000001
9.0,0.0200429999999998
9.200000000000044,0.0181599999999999
9.400000000000034,0.0168289999999999
9.600000000000025,0.0149189999999999
9.800000000000011,0.0142259999999998
10.0,0.0170349999999999
10.200000000000044,0.018701
10.400000000000034,0.0206460000000001
10.600000000000025,0.0208849999999998
10.800000000000011,0.0215450000000001
11.0,0.020048
11.200000000000044,0.0195599999999998
11.400000000000034,0.0177169999999997
11.600000000000025,0.0173290000000001
11.800000000000011,0.017201
12.0,0.016826
12.200000000000044,0.0165329999999999
12.400000000000034,0.0165519999999999
12.600000000000025,0.0183840000000001
12.800000000000011,0.019203
13.0,0.020051
13.200000000000044,0.0196
13.400000000000034,0.0187129999999999
13.600000000000025,0.0166509999999999
13.800000000000011,0.0162599999999999
14.0,0.014682
14.200000000000044,0.0138319999999998
14.400000000000034,0.0122219999999999
14.600000000000025,0.0130279999999998
14.800000000000011,0.0135770000000001
15.0,0.0151560000000001
15.200000000000044,0.0164119999999998
15.400000000000034,0.016788
15.600000000000025,0.014853
15.800000000000011,0.0140280000000001
16.0,0.0129209999999999
16.200000000000045,0.0123790000000001
16.400000000000034,0.0141339999999998
16.600000000000023,0.0163809999999999
16.80000000000001,0.0171350000000001
17.0,0.01709
17.200000000000045,0.0162529999999998
17.400000000000034,0.0146380000000001
17.600000000000023,0.0132210000000001
17.80000000000001,0.0127829999999997
18.0,0.0123760000000001
18.200000000000045,0.0121470000000001
18.400000000000038,0.0121090000000001
18.600000000000023,0.0129399999999999
18.80000000000001,0.0122279999999999
19.0,0.0125929999999998
19.200000000000045,0.0125359999999998
19.400000000000038,0.0131529999999999
19.600000000000023,0.0136699999999998
19.80000000000001,0.0151080000000001
20.0,0.0169899999999998
20.200000000000045,0.01932
20.400000000000038,0.0211519999999998
20.600000000000023,0.0216379999999998
20.80000000000001,0.0201169999999999
21.0,0.016458
21.200000000000045,0.0135619999999998
21.400000000000038,0.010466
21.600000000000023,0.0097879999999999
21.80000000000001,0.0103520000000001
22.0,0.0141390000000001
22.200000000000045,0.015346
22.400000000000038,0.016302
22.600000000000023,0.0148479999999997
22.80000000000001,0.0140409999999997
23.0,0.0118659999999999
23.200000000000045,0.012375
23.400000000000038,0.0130849999999997
23.600000000000023,0.0151629999999998
23.80000000000001,0.0160569999999999
24.0,0.016804
24.200000000000045,0.0155119999999997
24.400000000000038,0.0152109999999998
24.600000000000023,0.0143409999999999
24.80000000000001,0.0158209999999998
25.0,0.0176009999999999
25.200000000000045,0.0191789999999998
25.400000000000038,0.017983
25.600000000000023,0.0157029999999998
25.80000000000001,0.0128780000000001
26.0,0.0090469999999998
26.200000000000045,0.007101
26.400000000000038,0.0078960000000001
26.600000000000023,0.0092259999999999
26.80000000000001,0.0100759999999997
27.0,0.0103749999999998
27.200000000000045,0.011911
27.400000000000038,0.015352
27.600000000000023,0.0189309999999998
27.80000000000001,0.0204019999999998
28.0,0.0207299999999999
28.200000000000045,0.0188329999999998
28.400000000000038,0.0152049999999999
28.600000000000023,0.0114589999999998
28.80000000000001,0.0098440000000001
29.0,0.0106669999999997
29.200000000000045,0.011581
29.400000000000038,0.012588
29.600000000000023,0.0134279999999997
29.80000000000001,0.0136340000000001
30.0,0.0138639999999998
30.200000000000045,0.0132789999999998
30.400000000000038,0.0106049999999999
30.600000000000023,0.0067430000000001
30.80000000000001,0.005335
31.0,0.0044209999999997
31.200000000000045,0.0060109999999999
31.400000000000038,0.0078459999999997
31.600000000000023,0.0110229999999997
31.80000000000001,0.013131
32.0,0.0140159999999998
32.200000000000045,0.0153149999999997
32.400000000000034,0.0176180000000001
32.60000000000002,0.0191719999999997
32.80000000000001,0.0187539999999999
33.0,0.0183390000000001
33.200000000000045,0.0167950000000001
33.400000000000034,0.0156469999999999
33.60000000000002,0.0134159999999998
33.80000000000001,0.011851
34.0,0.0115319999999998
34.200000000000045,0.0107569999999999
34.400000000000034,0.0088970000000001
34.60000000000002,0.0085980000000001
34.80000000000001,0.006879
35.0,0.0046629999999998
35.200000000000045,0.0033829999999999
35.400000000000034,0.004191
35.60000000000002,0.0053389999999997
35.80000000000001,0.007603
36.0,0.0094069999999999
36.200000000000045,0.0095549999999997
36.400000000000034,0.0092889999999998
36.60000000000002,0.009732
36.80000000000001,0.00957
37.0,0.0093139999999998
37.200000000000045,0.0108920000000001
37.400000000000034,0.012118
37.60000000000002,0.0114079999999998
37.80000000000001,0.010466
38.0,0.01031
38.200000000000045,0.0079859999999998
38.400000000000034,0.004566
38.60000000000002,0.003848
38.80000000000001,0.0045579999999998
39.0,0.005306
39.200000000000045,0.0068779999999999
39.400000000000034,0.0068700000000001
39.60000000000002,0.00448
39.80000000000001,0.0033699999999998
40.0,0.0030640000000001
40.200000000000045,0.0027059999999998
40.400000000000034,0.0047329999999998
40.60000000000002,0.007946
40.80000000000001,0.0108989999999997
41.0,0.0117029999999997
41.200000000000045,0.0122879999999998
41.400000000000034,0.0128849999999998
41.60000000000002,0.011829
41.80000000000001,0.0099079999999998
42.0,0.0093929999999997
42.200000000000045,0.0100509999999998
42.400000000000034,0.0100280000000001
42.60000000000002,0.0100539999999997
42.80000000000001,0.0118709999999997
43.0,0.0135549999999997
43.200000000000045,0.0150510000000001
43.400000000000034,0.0159489999999999
43.60000000000002,0.0179619999999998
43.80000000000001,0.018224
44.0,0.018421
44.200000000000045,0.0166789999999998
44.400000000000034,0.0160409999999999
44.60000000000002,0.0156239999999998
44.80000000000001,0.0148939999999999
45.0,0.0124710000000001
45.200000000000045,0.0092949999999998
45.400000000000034,0.0056169999999999
45.60000000000002,0.0019740000000001
45.80000000000001,4.099999999995774e-05
46.0,-0.000369
46.200000000000045,0.0005730000000001
46.400000000000034,0.0009169999999998
46.60000000000002,0.001414
46.80000000000001,0.0009139999999998
47.0,0.000347
47.200000000000045,0.0013510000000001
47.400000000000034,0.0025669999999999
47.60000000000002,0.0057960000000001
47.80000000000001,0.0091510000000001
48.0,0.0123440000000001
48.200000000000045,0.0133719999999999
48.400000000000034,0.0135929999999997
48.60000000000002,0.0117609999999999
48.80000000000001,0.0106030000000001
49.0,0.0097179999999998
49.200000000000045,0.0089540000000001
49.400000000000034,0.0093239999999998
49.60000000000002,0.0081699999999997
49.80000000000001,0.0069539999999999
50.0,0.006113
50.200000000000045,0.0072769999999997
50.400000000000034,0.0089099999999997
50.60000000000002,0.012318
50.80000000000001,0.0143390000000001
51.0,0.0146030000000001
51.200000000000045,0.0140349999999997
51.400000000000034,0.013303
51.60000000000002,0.012051
51.80000000000001,0.010361
52.0,0.0107699999999999
52.200000000000045,0.0100639999999998
52.400000000000034,0.0097
52.60000000000002,0.0093389999999997
52.80000000000001,0.0105919999999999
53.0,0.0126119999999998
53.200000000000045,0.0148799999999997
53.400000000000034,0.0142310000000001
53.60000000000002,0.0127859999999997
53.80000000000001,0.0101559999999998
54.0,0.008137
54.200000000000045,0.0083869999999999
54.400000000000034,0.0108679999999998
54.60000000000002,0.0123319999999997
54.80000000000001,0.0135779999999998
55.0,0.013805
55.200000000000045,0.012537
55.400000000000034,0.0101740000000001
55.60000000000002,0.0094050000000001
55.80000000000001,0.0097610000000001
56.0,0.0089199999999998
56.200000000000045,0.0071879999999997
56.400000000000034,0.0065349999999999
56.60000000000002,0.0069289999999999
56.80000000000001,0.0084239999999997
57.0,0.0096089999999997
57.200000000000045,0.0102129999999998
57.400000000000034,0.0100850000000001
57.60000000000002,0.009519
57.80000000000001,0.0072309999999999
58.0,0.004852
58.200000000000045,0.0041850000000001
58.400000000000034,0.0039549999999999
58.60000000000002,0.0040779999999998
58.80000000000001,0.0042170000000001
59.0,0.0037899999999999
59.200000000000045,0.0028829999999997
59.400000000000034,0.003457
59.60000000000002,0.0034770000000001
59.80000000000001,0.0034779999999998
60.0,0.005773
60.200000000000045,0.0079839999999999
60.400000000000034,0.0084189999999999
60.60000000000002,0.0083009999999998
60.80000000000001,0.0087749999999999
61.0,0.0083139999999999
61.200000000000045,0.0064099999999998
61.400000000000034,0.0058489999999999
61.60000000000002,0.0072879999999999
61.80000000000007,0.0085829999999997
62.0,0.0077669999999998
62.200000000000045,0.0081729999999997
62.39999999999998,0.0085000000000001
62.60000000000002,0.006806
62.80000000000007,0.0044249999999999
63.0,0.0030350000000001
63.200000000000045,0.0029249999999998
63.39999999999998,0.0028619999999999
63.60000000000002,0.0038659999999999
63.80000000000007,0.0047369999999999
64.0,0.0058199999999999
64.20000000000005,0.0070890000000001
64.39999999999998,0.0078409999999999
64.60000000000002,0.0082840000000001
64.80000000000007,0.0075289999999998
65.0,0.0076939999999998
65.20000000000005,0.0065089999999998
65.39999999999998,0.0063870000000001
65.60000000000002,0.006536
65.80000000000007,0.0096850000000001
66.0,0.0114279999999999
66.20000000000005,0.0129160000000001
66.39999999999998,0.0123820000000001
66.60000000000002,0.0108760000000001
66.80000000000007,0.008083
67.0,0.0064980000000001
67.20000000000005,0.0062729999999997
67.39999999999998,0.007292
67.60000000000002,0.0079449999999998
67.80000000000007,0.0095439999999999
68.0,0.010088
68.20000000000005,0.009471
68.39999999999998,0.0080219999999999
68.60000000000002,0.0071970000000001
68.80000000000007,0.004153
69.0,0.0032209999999999
69.20000000000005,0.002294
69.39999999999998,0.00143
69.60000000000002,0.0011079999999998
69.80000000000007,0.0039039999999999
70.0,0.0043289999999998
70.20000000000005,0.0063599999999999
70.39999999999998,0.0094549999999999
70.60000000000002,0.011781
70.80000000000007,0.010631
71.0,0.0108019999999999
71.20000000000005,0.0098859999999998
71.39999999999998,0.0079880000000001
71.60000000000002,0.0057149999999999
71.80000000000007,0.006739
72.0,0.0079409999999997
72.20000000000005,0.009309
72.39999999999998,0.0117669999999998
72.60000000000002,0.0143629999999999
72.80000000000007,0.0125459999999999
73.0,0.0091009999999998
73.20000000000005,0.0066709999999998
73.39999999999998,0.0052599999999998
73.60000000000002,0.0043579999999998
73.80000000000007,0.0066859999999997
74.0,0.0101569999999999
74.20000000000005,0.0107810000000001
74.39999999999998,0.0090569999999998
74.60000000000002,0.0084680000000001
74.80000000000007,0.008569
75.0,0.0073479999999999
75.20000000000005,0.0081790000000001
75.39999999999998,0.0082840000000001
75.60000000000002,0.00753
75.80000000000007,0.0062579999999998
76.0,0.0053809999999998
76.20000000000005,0.0043950000000001
76.39999999999998,0.0038819999999999
76.60000000000002,0.003387
76.80000000000007,0.0030190000000001
77.0,0.00509
77.20000000000005,0.0055939999999998
77.39999999999998,0.0061680000000001
77.60000000000002,0.006237
77.80000000000007,0.005694
78.0,0.0032329999999998
78.20000000000005,0.0017439999999999
78.39999999999998,0.001662
78.60000000000002,0.0029729999999998
78.80000000000007,0.0044729999999999
79.0,0.007549
79.20000000000005,0.0100630000000001
79.39999999999998,0.0115020000000001
79.60000000000002,0.0111799999999999
79.80000000000007,0.0111219999999998
80.0,0.0091299999999998
80.20000000000005,0.0079829999999998
80.39999999999998,0.0077660000000001
80.60000000000002,0.0074369999999999
80.80000000000007,0.0076679999999997
81.0,0.0078580000000001
81.20000000000005,0.0084330000000001
81.39999999999998,0.0065319999999999
81.60000000000002,0.0043980000000001
81.80000000000007,0.001678
82.0,0.0006499999999998
82.20000000000005,0.0002529999999998
82.39999999999998,0.002177
82.60000000000002,0.0039929999999999
82.80000000000007,0.002758
83.0,0.0004309999999998
83.20000000000005,-0.0030079999999998
83.39999999999998,-0.004671
83.60000000000002,-0.0053339999999999
83.80000000000007,-0.0035449999999999
84.0,-0.0018129999999998
84.20000000000005,0.0009229999999997
84.39999999999998,0.002224
84.60000000000002,0.0040870000000001
84.80000000000007,0.0039980000000001
85.0,0.0044319999999999
85.20000000000005,0.0035690000000001
85.39999999999998,0.0028749999999999
85.60000000000002,0.001373
85.80000000000007,0.0019200000000001
86.0,0.0031819999999997
86.20000000000005,0.005344
86.39999999999998,0.0069319999999999
86.60000000000002,0.0092119999999997
86.80000000000007,0.010339
87.0,0.0096979999999997
87.20000000000005,0.0091739999999997
87.39999999999998,0.0085989999999998
87.60000000000002,0.0068719999999999
87.80000000000007,0.004639
88.0,0.0038849999999999
88.20000000000005,0.0038059999999999
88.39999999999998,0.0028549999999998
88.60000000000002,0.0018729999999997
88.80000000000007,0.0036179999999998
89.0,0.0059379999999999
89.20000000000005,0.0074169999999997
89.39999999999998,0.0094249999999997
89.60000000000002,0.0097930000000001
89.80000000000007,0.0071889999999998
90.0,0.0024169999999998
90.20000000000005,-0.0014379999999998
90.39999999999998,-0.003562
90.60000000000002,-0.003959
90.80000000000008,-0.0030000000000001
91.0,7.599999999996498e-05
91.20000000000005,0.0029289999999999
91.39999999999998,0.0061279999999999
91.60000000000002,0.0091519999999998
91.80000000000008,0.0107829999999999
92.0,0.0095089999999999
92.20000000000005,0.0080369999999998
92.39999999999998,0.003622
92.60000000000002,0.0014449999999999
92.80000000000008,-0.0001850000000001
93.0,0.000401
93.20000000000005,0.000204
93.39999999999998,0.0008750000000001
93.60000000000002,0.000734
93.80000000000008,0.0024009999999998
94.0,0.0041069999999998
94.20000000000005,0.0061279999999999
94.39999999999998,0.0068489999999998
94.60000000000002,0.006968
94.80000000000008,0.0055420000000001
95.0,0.0049999999999998
95.20000000000005,0.0051879999999999
95.39999999999998,0.0054759999999998
95.60000000000002,0.0055619999999998
95.80000000000008,0.0052799999999999
96.0,0.003654
96.20000000000005,0.002561
96.39999999999998,0.003927
96.60000000000002,0.003816
96.80000000000008,0.0048789999999998
97.0,0.0048669999999999
97.20000000000005,0.0020199999999999
97.39999999999998,-0.0030589999999999
97.60000000000002,-0.0072040000000002
97.80000000000008,-0.0093239999999998
98.0,-0.0091070000000001
98.20000000000005,-0.0081199999999999
98.39999999999998,-0.006453
98.60000000000002,-0.0043239999999999
98.80000000000008,-0.0038040000000001
99.0,-0.0054189999999998
99.20000000000005,-0.005541
99.39999999999998,-0.004944
99.60000000000002,-0.004089
99.80000000000008,-0.0039120000000001
100.0,-0.001497
100.20000000000005,-0.00015
100.39999999999998,-0.0004629999999998
100.60000000000002,-0.0009100000000001
100.80000000000008,-0.0014349999999998
101.0,-0.0034529999999999
101.20000000000005,-0.0040870000000001
101.39999999999998,-0.0032550000000002
101.60000000000002,-0.0025810000000001
101.80000000000008,-0.002024
102.0,-0.0009359999999998
102.20000000000005,-0.0017849999999999
102.39999999999998,-0.0027189999999999
102.60000000000002,-0.0025880000000002
102.80000000000008,-0.0023249999999999
103.0,-0.001004
103.20000000000005,0.0004949999999999
103.39999999999998,0.0015659999999999
103.60000000000002,0.0026429999999999
103.80000000000008,0.004677
104.0,0.003444
104.20000000000005,0.002418
104.39999999999998,0.0019999999999997
104.60000000000002,0.0033240000000001
104.80000000000008,0.0030779999999999
105.0,0.0033029999999998
105.20000000000005,0.0012199999999999
105.39999999999998,0.0006780000000001
105.60000000000002,-0.0020380000000002
105.80000000000008,-0.0025669999999999
106.0,-0.0007410000000001
106.20000000000005,0.0028679999999998
106.39999999999998,0.0050430000000001
106.60000000000002,0.0064239999999999
106.80000000000008,0.005881
107.0,0.0021580000000001
107.20000000000005,-0.0004529999999998
107.39999999999998,-0.0022109999999999
107.60000000000002,-0.0026960000000002
107.80000000000008,-0.001627
108.0,-0.0004490000000001
108.20000000000005,0.0004559999999997
108.39999999999998,0.0004219999999999
108.60000000000002,0.0007489999999998
108.80000000000008,0.0003539999999997
109.0,0.0011179999999999
109.20000000000005,0.0011049999999999
109.39999999999998,0.0002079999999997
109.60000000000002,-0.001325
109.80000000000008,-0.0040710000000001
110.0,-0.006183
110.20000000000005,-0.0079829999999998
110.39999999999998,-0.0079540000000002
110.60000000000002,-0.00767
110.80000000000008,-0.006253
111.0,-0.001954
111.20000000000005,0.001166
111.39999999999998,0.0029050000000001
111.60000000000002,0.0039329999999999
111.80000000000008,0.0061659999999998
112.0,0.004947
112.20000000000005,0.0050069999999999
112.39999999999998,0.0042629999999999
112.60000000000002,0.0031669999999999
112.80000000000008,0.0014180000000001
113.0,-0.000725
113.20000000000005,-0.0018359999999999
113.39999999999998,-0.002717
113.60000000000002,-0.002466
113.80000000000008,-0.0019420000000001
114.0,-0.0005199999999998
114.20000000000005,-0.0001899999999999
114.39999999999998,0.0003250000000001
114.60000000000002,-0.0009169999999998
114.80000000000008,-0.0015070000000001
115.0,-0.0033199999999999
115.20000000000005,-0.0042029999999999
115.39999999999998,-0.0038800000000001
115.60000000000002,-0.0020839999999999
115.80000000000008,-0.0019270000000002
116.0,-0.0008759999999998
116.20000000000005,-0.0012639999999999
116.39999999999998,-0.0016479999999998
116.60000000000002,-0.0018120000000001
116.80000000000008,-0.001821
117.0,-0.0011390000000002
117.20000000000005,0.0008789999999998
117.39999999999998,0.0012799999999999
117.60000000000002,-0.0002119999999998
117.80000000000008,-0.0018190000000002
118.0,-0.0032499999999999
118.20000000000005,-0.0044319999999999
118.39999999999998,-0.0037609999999999
118.60000000000002,-0.0007130000000001
118.80000000000008,0.0007380000000001
119.0,0.0010910000000001
119.20000000000005,0.0024069999999998
119.39999999999998,0.0034459999999998
119.60000000000002,0.002215
119.80000000000008,0.0010289999999999
120.0,0.001754
120.20000000000005,-0.0005600000000001
120.39999999999998,-0.0048880000000002
120.60000000000002,-0.008826
120.80000000000008,-0.009252
121.0,-0.0094820000000002
121.20000000000005,-0.0067349999999999
121.39999999999998,-0.0032589999999999
121.60000000000002,0.0006629999999998
121.80000000000008,0.002574
122.0,0.0029609999999999
122.20000000000005,0.001551
122.39999999999998,0.0010539999999998
122.60000000000002,0.0014359999999999
122.80000000000008,0.0028869999999998
123.0,0.0049929999999998
123.20000000000005,0.0058899999999999
123.39999999999998,0.004569
123.60000000000002,0.0012439999999998
123.80000000000008,-0.0039679999999999
124.0,-0.0090650000000001
124.20000000000005,-0.011883
124.39999999999998,-0.0115690000000001
124.60000000000002,-0.010088
124.80000000000008,-0.0079030000000002
125.0,-0.00706
125.20000000000005,-0.0068719999999999
125.39999999999998,-0.0083899999999998
125.60000000000002,-0.009252
125.80000000000008,-0.0078239999999998
126.0,-0.0063050000000002
126.20000000000005,-0.0046020000000002
126.39999999999998,-0.0031069999999999
126.60000000000002,-0.0013900000000002
126.80000000000008,-0.0019810000000002
127.0,-0.002507
127.20000000000005,-0.0042270000000002
127.39999999999998,-0.0053420000000001
127.60000000000002,-0.0062120000000001
127.80000000000008,-0.004931
128.0,-0.0041510000000002
128.20000000000005,-0.003638
128.39999999999998,-0.0042740000000001
128.60000000000002,-0.0036789999999999
128.80000000000007,-0.0057659999999999
129.0,-0.0064329999999999
129.20000000000005,-0.0057640000000001
129.39999999999998,-0.003937
129.60000000000002,-0.0043549999999998
129.80000000000007,-0.0045079999999999
130.0,-0.0047559999999999
130.20000000000005,-0.0058790000000001
130.39999999999998,-0.0067789999999998
130.60000000000002,-0.007921
130.80000000000007,-0.0077820000000001
131.0,-0.0074909999999999
131.20000000000005,-0.0064549999999998
131.39999999999998,-0.004696
131.60000000000002,-0.004566
131.80000000000007,-0.007273
132.0,-0.009875
132.20000000000005,-0.0099420000000001
132.39999999999998,-0.0099080000000002
132.60000000000002,-0.0099930000000001
132.80000000000007,-0.008871
133.0,-0.0077310000000001
133.20000000000005,-0.0075760000000002
133.39999999999998,-0.0075899999999999
133.60000000000002,-0.0052970000000001
133.80000000000007,-0.0027059999999998
134.0,0.0006159999999999
134.20000000000005,0.0016579999999999
134.39999999999998,0.0018739999999999
134.60000000000002,0.001392
134.80000000000007,0.0010430000000001
135.0,2.300000000010627e-05
135.20000000000005,-0.002196
135.39999999999998,-0.0043290000000002
135.60000000000002,-0.0067460000000001
135.80000000000007,-0.0090539999999998
136.0,-0.011098
136.20000000000005,-0.0097019999999998
136.39999999999998,-0.0075549999999999
136.60000000000002,-0.0043890000000001
136.80000000000007,-0.0019569999999999
137.0,-1.199999999990098e-05
137.20000000000005,0.0011879999999999
137.39999999999998,-0.0001130000000002
137.60000000000002,-0.000696
137.80000000000007,-0.0021270000000002
138.0,-0.0025400000000002
138.20000000000005,-0.0041459999999999
138.39999999999998,-0.0026610000000002
138.60000000000002,-0.0033069999999999
138.80000000000007,-0.0017059999999999
139.0,-0.0014449999999999
139.20000000000005,-0.0007540000000001
139.39999999999998,-0.0024220000000001
139.60000000000002,-0.0040279999999999
139.80000000000007,-0.006272
140.0,-0.008855
140.20000000000005,-0.0105710000000001
140.39999999999998,-0.012283
140.60000000000002,-0.012785
140.80000000000007,-0.0122919999999999
141.0,-0.0103050000000002
141.20000000000005,-0.0095969999999998
141.39999999999998,-0.0096509999999998
141.60000000000002,-0.008124
141.80000000000007,-0.007578
142.0,-0.0060470000000001
142.20000000000005,-0.0061919999999999
142.39999999999998,-0.0045049999999999
142.60000000000002,-0.0046520000000001
142.80000000000007,-0.0039549999999999
143.0,-0.005363
143.20000000000005,-0.003946
143.39999999999998,-0.003289
143.60000000000002,-0.0021050000000002
143.80000000000007,-0.001646
144.0,-0.0024969999999999
144.20000000000005,-0.0052850000000002
144.39999999999998,-0.0070700000000001
144.60000000000002,-0.0087199999999998
144.80000000000007,-0.0109910000000001
145.0,-0.0105330000000001
145.20000000000005,-0.0082279999999999
145.39999999999998,-0.006545
145.60000000000002,-0.0056419999999999
145.80000000000007,-0.0046789999999998
146.0,-0.0054310000000001
146.20000000000005,-0.0081380000000002
146.39999999999998,-0.0109699999999999
146.60000000000002,-0.0116680000000002
146.80000000000007,-0.0113820000000002
147.0,-0.0097610000000001
147.20000000000005,-0.0050379999999998
147.39999999999998,0.0020869999999999
147.60000000000002,0.0050349999999999
147.80000000000007,0.0048080000000001
148.0,0.0029810000000001
148.20000000000005,-0.001284
148.39999999999998,-0.007203
148.60000000000002,-0.0109970000000001
148.80000000000007,-0.0124919999999999
149.0,-0.0140760000000002
149.20000000000005,-0.0140449999999998
149.39999999999998,-0.0134690000000001
149.60000000000002,-0.0129290000000001
149.80000000000007,-0.011657
150.0,-0.0105110000000001
150.20000000000005,-0.0100069999999998
150.39999999999998,-0.0106950000000001
150.60000000000002,-0.0084520000000001
150.80000000000007,-0.0062470000000001
151.0,-0.0045459999999999
151.20000000000005,-0.0060929999999999
151.39999999999998,-0.0061749999999998
151.60000000000002,-0.0081169999999999
151.80000000000007,-0.0089749999999999
152.0,-0.0102419999999998
152.20000000000005,-0.0098229999999999
152.39999999999998,-0.0094699999999998
152.60000000000002,-0.0098660000000001
152.80000000000007,-0.011057
153.0,-0.0121449999999998
153.20000000000005,-0.0112770000000002
153.39999999999998,-0.0117259999999999
153.60000000000002,-0.0119820000000001
153.80000000000007,-0.0122309999999998
154.0,-0.0118110000000002
154.20000000000005,-0.0117910000000001
154.39999999999998,-0.009478
154.60000000000002,-0.0076040000000001
154.80000000000007,-0.0072489999999998
155.0,-0.0081129999999998
155.20000000000005,-0.0080360000000001
155.39999999999998,-0.008115
155.60000000000002,-0.008569
155.80000000000007,-0.0078070000000001
156.0,-0.005945
156.20000000000005,-0.0058380000000002
156.39999999999998,-0.0071910000000001
156.60000000000002,-0.0067780000000001
156.80000000000007,-0.0070670000000001
157.0,-0.0069750000000001
157.20000000000005,-0.0074070000000001
157.39999999999998,-0.010088
157.60000000000002,-0.0122949999999999
157.80000000000007,-0.013376
158.0,-0.0139569999999999
158.20000000000005,-0.0137089999999999
158.39999999999998,-0.010564
158.60000000000002,-0.008658
158.80000000000007,-0.0080369999999998
159.0,-0.008013
159.20000000000005,-0.0086669999999999
159.39999999999998,-0.0111989999999999
159.60000000000002,-0.0127830000000002
159.80000000000007,-0.013287
160.0,-0.013659
160.20000000000005,-0.0136039999999999
160.39999999999998,-0.012029
160.60000000000002,-0.0121139999999999
160.80000000000007,-0.0123540000000001
161.0,-0.0118589999999998
161.20000000000005,-0.0084900000000001
161.39999999999998,-0.0069059999999998
161.60000000000002,-0.0080240000000002
161.80000000000007,-0.0103750000000002
162.0,-0.0102700000000002
162.20000000000005,-0.0126249999999998
162.39999999999998,-0.0148269999999999
162.60000000000002,-0.013789
162.80000000000007,-0.011063
163.0,-0.0086309999999998
163.20000000000005,-0.0056349999999998
163.39999999999998,-0.0027240000000001
163.60000000000002,-0.000712
163.80000000000007,-0.0015049999999998
164.0,-0.0034299999999998
164.20000000000005,-0.0044360000000001
164.39999999999998,-0.003117
164.60000000000002,-0.0035509999999998
164.80000000000007,-0.0035699999999998
165.0,-0.0048789999999998
165.20000000000005,-0.0059469999999999
165.39999999999998,-0.0086289999999999
165.60000000000002,-0.009087
165.80000000000007,-0.0078300000000002
166.0,-0.0068199999999998
166.20000000000005,-0.0072350000000001
166.39999999999998,-0.0072480000000001
166.60000000000002,-0.007222
166.80000000000007,-0.007641
167.0,-0.006288
167.20000000000005,-0.0061680000000001
167.39999999999998,-0.0048859999999999
167.60000000000002,-0.0046880000000002
167.80000000000007,-0.0044159999999999
168.0,-0.0062829999999998
168.20000000000005,-0.0068719999999999
168.39999999999998,-0.0077090000000001
168.60000000000002,-0.007355
168.80000000000007,-0.0066899999999998
169.0,-0.0065059999999999
169.20000000000005,-0.006399
169.39999999999998,-0.007146
169.60000000000002,-0.0082750000000002
169.80000000000007,-0.0100510000000002
170.0,-0.0101300000000001
170.20000000000005,-0.0109129999999999
170.39999999999998,-0.0119890000000002
170.60000000000002,-0.0117329999999999
170.80000000000007,-0.0103369999999998
171.0,-0.0097529999999999
171.20000000000005,-0.0093559999999999
171.39999999999998,-0.0083470000000001
171.60000000000002,-0.0092859999999999
171.80000000000007,-0.0104290000000002
172.0,-0.0091610000000001
172.20000000000005,-0.007454
172.39999999999998,-0.0055360000000002
172.60000000000002,-0.0035850000000001
172.80000000000007,-0.003336
173.0,-0.0064049999999999
173.20000000000005,-0.0081980000000001
173.39999999999998,-0.0096009999999999
173.60000000000002,-0.010107
173.80000000000007,-0.0096259999999999
174.0,-0.008064
174.20000000000005,-0.005881
174.39999999999998,-0.0032130000000001
174.60000000000002,-0.0019430000000002
174.80000000000007,-0.0014220000000002
175.0,-0.003362
175.20000000000005,-0.0070610000000002
175.39999999999998,-0.0120710000000001
175.60000000000002,-0.0146709999999998
175.80000000000007,-0.0151319999999999
176.0,-0.01085
176.20000000000005,-0.0071409999999998
176.39999999999998,-0.004833
176.60000000000002,-0.004766
176.80000000000007,-0.0061979999999999
177.0,-0.0077099999999998
177.20000000000005,-0.0111419999999999
177.39999999999998,-0.0137830000000001
177.60000000000002,-0.0167070000000002
177.80000000000007,-0.0163030000000001
178.0,-0.017948
178.20000000000005,-0.0169809999999999
178.39999999999998,-0.0154109999999998
178.60000000000002,-0.0116960000000001
178.80000000000007,-0.0092249999999998
179.0,-0.0076089999999999
179.20000000000005,-0.008404
179.39999999999998,-0.0100190000000002
179.60000000000002,-0.0112320000000001
179.80000000000007,-0.011657
180.0,-0.0118079999999998
180.20000000000005,-0.0114079999999998
180.4,-0.0112269999999998
180.6,-0.0112200000000002
180.80000000000007,-0.0152010000000002
181.0,-0.018434
181.20000000000005,-0.0181620000000002
181.4,-0.0159509999999998
181.6,-0.0160469999999999
181.80000000000007,-0.0151430000000001
182.0,-0.0138199999999999
182.20000000000005,-0.0137930000000001
182.4,-0.0137710000000002
182.6,-0.0107029999999999
182.80000000000007,-0.007352
183.0,-0.0048949999999998
183.20000000000005,-0.0049670000000001
183.4,-0.0056039999999999
183.6,-0.0071590000000001
183.80000000000007,-0.0081299999999999
184.0,-0.009373
184.20000000000005,-0.010237
184.4,-0.0122019999999998
184.6,-0.0136959999999999
184.80000000000007,-0.0157440000000002
185.0,-0.0167899999999998
185.20000000000005,-0.0165039999999998
185.4,-0.01411
185.6,-0.0139529999999998
185.80000000000007,-0.012474
186.0,-0.0116830000000001
186.20000000000005,-0.0101740000000001
186.4,-0.0099019999999998
186.6,-0.009389
186.80000000000007,-0.0105870000000001
187.0,-0.0109409999999998
187.20000000000005,-0.0110070000000002
187.4,-0.0126270000000001
187.6,-0.0127540000000001
187.80000000000007,-0.0123980000000001
188.0,-0.0123139999999999
188.20000000000005,-0.0137149999999999
188.4,-0.0126680000000001
188.6,-0.0127730000000001
188.80000000000007,-0.010901
189.0,-0.0115889999999998
189.20000000000005,-0.0108480000000001
189.4,-0.0108679999999998
189.6,-0.009983
189.80000000000007,-0.0110260000000002
190.0,-0.011406
190.20000000000005,-0.0122409999999999
190.4,-0.013284
190.6,-0.014348
190.80000000000007,-0.0146359999999998
191.0,-0.014761
191.20000000000005,-0.0163570000000001
191.4,-0.0165790000000001
191.6,-0.0150800000000002
191.80000000000007,-0.0154119999999999
192.0,-0.0164360000000001
192.20000000000005,-0.0164179999999998
192.4,-0.0183490000000001
192.6,-0.021738
192.80000000000007,-0.0233889999999998
193.0,-0.022313
193.20000000000005,-0.0217309999999999
193.4,-0.0211740000000002
193.6,-0.0213390000000002
193.80000000000007,-0.0211830000000001
194.0,-0.021579
194.20000000000005,-0.0197389999999999
194.4,-0.0178159999999998
194.6,-0.0166669999999999
194.80000000000007,-0.016029
195.0,-0.0159489999999999
195.20000000000005,-0.0167070000000002
195.4,-0.0177969999999998
195.6,-0.0163120000000001
195.80000000000007,-0.0154559999999999
196.0,-0.0146139999999999
196.20000000000005,-0.0147460000000001
196.4,-0.0132780000000001
196.6,-0.0141499999999998
196.80000000000007,-0.0147870000000001
197.0,-0.0151050000000001
197.20000000000005,-0.0150190000000001
197.4,-0.0142600000000001
197.6,-0.013586
197.80000000000007,-0.0145710000000001
198.0,-0.0145689999999998
198.20000000000005,-0.014952
198.4,-0.0162089999999999
198.6,-0.014475
198.80000000000007,-0.0112260000000001
199.0,-0.009964
199.20000000000005,-0.0089390000000002
199.4,-0.007857
199.6,-0.0097019999999998
199.80000000000007,-0.0125730000000001
200.0,-0.014129
200.20000000000005,-0.0147620000000001
200.4,-0.0150290000000001
200.6,-0.015498
200.80000000000007,-0.0151240000000001
201.0,-0.0142899999999999
201.20000000000005,-0.0133209999999999
201.4,-0.013605
201.6,-0.012934
201.80000000000007,-0.0108899999999998
202.0,-0.0111219999999998
202.20000000000005,-0.012674
202.4,-0.0153639999999999
202.6,-0.014761
202.80000000000007,-0.0141080000000002
203.0,-0.0128690000000002
203.20000000000005,-0.0119280000000001
203.4,-0.0078300000000002
203.6,-0.006053
203.80000000000007,-0.005595
204.0,-0.0068779999999999
204.20000000000005,-0.0078689999999999
204.4,-0.0112809999999998
204.6,-0.0147219999999999
204.80000000000007,-0.0180509999999998
205.0,-0.0187340000000002
205.20000000000005,-0.0180929999999999
205.4,-0.015409
205.6,-0.0132379999999998
205.80000000000007,-0.0106619999999999
206.0,-0.0090940000000001
206.20000000000005,-0.0071789999999998
206.4,-0.0086669999999999
206.6,-0.0106350000000001
206.80000000000007,-0.0115919999999998
207.0,-0.0111050000000001
207.20000000000005,-0.0128020000000002
207.4,-0.011565
207.6,-0.010853
207.80000000000007,-0.0115020000000001
208.0,-0.0120399999999998
208.20000000000005,-0.0131489999999998
208.4,-0.0156779999999998
208.6,-0.0180519999999999
208.80000000000007,-0.0198520000000002
209.0,-0.0219990000000001
209.20000000000005,-0.0207239999999999
209.4,-0.019006
209.6,-0.0173740000000002
209.80000000000007,-0.0160819999999999
210.0,-0.0142160000000002
210.20000000000005,-0.0130889999999999
210.4,-0.012477
210.6,-0.012162
210.80000000000007,-0.0122580000000001
211.0,-0.0124789999999999
211.20000000000005,-0.0132970000000001
211.4,-0.0134769999999999
211.6,-0.0132569999999998
211.80000000000007,-0.0119220000000002
212.0,-0.0099749999999998
212.20000000000005,-0.0078930000000001
212.4,-0.007438
212.6,-0.007689
212.80000000000007,-0.0092430000000001
213.0,-0.0104679999999999
213.20000000000005,-0.0122189999999999
213.4,-0.0122599999999999
213.6,-0.0123449999999998
213.80000000000007,-0.0124490000000001
214.0,-0.0133390000000002
214.20000000000005,-0.0133900000000002
214.4,-0.0143309999999998
214.6,-0.0148869999999998
214.80000000000007,-0.0148709999999998
215.0,-0.016324
215.20000000000005,-0.0163130000000002
215.4,-0.0155630000000002
215.6,-0.0143840000000001
215.80000000000007,-0.0131179999999999
216.0,-0.010253
216.20000000000005,-0.0096370000000001
216.4,-0.0095200000000001
216.6,-0.0102030000000001
216.80000000000007,-0.0116529999999999
217.0,-0.0133580000000002
217.20000000000005,-0.0130080000000001
217.4,-0.0125619999999999
217.6,-0.0107189999999999
217.80000000000007,-0.010135
218.0,-0.0100389999999999
218.20000000000005,-0.0109989999999999
218.4,-0.0120589999999998
218.6,-0.0140760000000002
218.80000000000007,-0.014453
219.0,-0.0154900000000002
219.20000000000005,-0.0159690000000001
219.4,-0.0168949999999998
219.6,-0.015921
219.80000000000007,-0.0162339999999998
220.0,-0.0154119999999999
220.20000000000005,-0.0152079999999998
220.4,-0.0127269999999999
220.6,-0.0136959999999999
220.80000000000007,-0.0131890000000001
221.0,-0.013071
221.20000000000005,-0.0145750000000002
221.4,-0.0175559999999999
221.6,-0.018685
221.80000000000007,-0.0178530000000001
222.0,-0.018199
222.20000000000005,-0.0190030000000001
222.4,-0.019803
222.6,-0.0193180000000001
222.80000000000007,-0.0193210000000001
223.0,-0.0183759999999999
223.20000000000005,-0.0165739999999998
223.4,-0.0152329999999998
223.6,-0.0144649999999999
223.80000000000007,-0.0152510000000001
224.0,-0.0146380000000001
224.20000000000005,-0.0132699999999998
224.4,-0.0124210000000002
224.6,-0.0134530000000001
224.80000000000007,-0.01519
225.0,-0.0187129999999999
225.20000000000005,-0.0215019999999999
225.4,-0.022831
225.6,-0.022383
225.80000000000007,-0.0203289999999998
226.0,-0.017525
226.20000000000005,-0.0167839999999999
226.4,-0.015422
226.6,-0.0139010000000001
226.80000000000007,-0.0134099999999999
227.0,-0.0138340000000001
227.20000000000005,-0.0149050000000001
227.4,-0.0151249999999998
227.6,-0.0146489999999999
227.80000000000007,-0.0148269999999999
228.0,-0.0152960000000001
228.20000000000005,-0.0145879999999998
228.4,-0.0141149999999998
228.6,-0.0140199999999999
228.80000000000007,-0.013252
229.0,-0.0125389999999998
229.20000000000005,-0.0109699999999999
229.4,-0.0106049999999999
229.6,-0.012029
229.80000000000007,-0.0136850000000001
230.0,-0.0147780000000001
230.20000000000005,-0.015028
230.4,-0.0150299999999998
230.6,-0.0137849999999999
230.80000000000007,-0.0117899999999999
231.0,-0.0107430000000001
231.20000000000005,-0.0107569999999999
231.4,-0.0115980000000002
231.6,-0.0131860000000001
231.80000000000007,-0.014377
232.0,-0.0133869999999998
232.20000000000005,-0.0146990000000002
232.4,-0.0149460000000001
232.6,-0.0125519999999998
232.80000000000007,-0.0124539999999999
233.0,-0.0157159999999998
233.20000000000005,-0.0165079999999999
233.4,-0.0178340000000001
233.6,-0.020137
233.80000000000007,-0.0208089999999998
234.0,-0.0195229999999999
234.20000000000005,-0.0202050000000002
234.4,-0.0215339999999999
234.6,-0.024146
234.80000000000007,-0.026145
235.0,-0.0260609999999998
235.20000000000005,-0.0239190000000002
235.4,-0.0204140000000001
235.6,-0.0177589999999998
235.80000000000007,-0.0163619999999999
236.0,-0.0165589999999999
236.20000000000005,-0.0170249999999998
236.4,-0.0190190000000001
236.6,-0.0208330000000001
236.80000000000007,-0.0214479999999999
237.0,-0.021125
237.20000000000005,-0.0193479999999999
237.4,-0.0187720000000002
237.6,-0.0176880000000001
237.80000000000007,-0.0163039999999998
238.0,-0.0153069999999999
238.20000000000005,-0.0159030000000002
238.4,-0.0157030000000002
238.6,-0.0149370000000002
238.80000000000007,-0.0155699999999998
239.0,-0.017087
239.20000000000005,-0.0180039999999999
239.4,-0.0166699999999999
239.6,-0.015797
239.80000000000007,-0.0148100000000002
240.0,-0.014456
240.20000000000005,-0.0123830000000002
240.4,-0.011006
240.6,-0.0102310000000001
240.80000000000007,-0.0115850000000001
241.0,-0.0112010000000002
241.20000000000005,-0.0124879999999998
241.4,-0.0147910000000002
241.6,-0.017903
241.80000000000007,-0.0189249999999998
242.0,-0.0181369999999998
242.20000000000005,-0.0178519999999999
242.4,-0.0177
242.6,-0.016798
242.80000000000007,-0.0127679999999998
243.0,-0.0110960000000002
243.20000000000005,-0.009255
243.4,-0.0096579999999999
243.6,-0.0106730000000001
243.80000000000007,-0.0132419999999999
244.0,-0.0151069999999999
244.20000000000005,-0.0168949999999998
244.4,-0.016108
244.6,-0.0146700000000001
244.80000000000007,-0.014383
245.0,-0.0158390000000001
245.20000000000005,-0.019123
245.4,-0.0215100000000001
245.6,-0.0226959999999998
245.80000000000007,-0.0219650000000002
246.0,-0.0209040000000002
246.20000000000005,-0.0176090000000002
246.4,-0.0164029999999999
246.6,-0.0155880000000001
246.80000000000007,-0.0179070000000001
247.0,-0.0191620000000001
247.20000000000005,-0.0205069999999998
247.4,-0.019139
247.6,-0.0186069999999998
247.80000000000007,-0.016261
248.0,-0.0147270000000001
248.20000000000005,-0.01411
248.4,-0.016299
248.6,-0.018466
248.80000000000007,-0.0192309999999999
249.0,-0.020102
249.20000000000005,-0.0199470000000001
249.4,-0.0193880000000001
249.6,-0.0183559999999998
249.80000000000007,-0.020226
250.0,-0.0220169999999999
250.20000000000005,-0.0234
250.4,-0.0242270000000002
250.6,-0.0242189999999999
250.80000000000007,-0.0225910000000002
251.0,-0.0201000000000002
251.20000000000005,-0.019686
251.4,-0.019174
251.6,-0.0192800000000001
251.80000000000007,-0.0191919999999998
252.0,-0.019876
252.20000000000005,-0.020499
252.4,-0.022291
252.6,-0.023543
252.80000000000007,-0.0248400000000001
253.0,-0.0245380000000001
253.20000000000005,-0.024737
253.4,-0.0244879999999998
253.6,-0.0244409999999999
253.80000000000007,-0.0255109999999998
254.0,-0.0269690000000002
254.20000000000005,-0.0253160000000001
254.4,-0.0225270000000001
254.6,-0.0198640000000001
254.80000000000007,-0.017824
255.0,-0.016785
255.20000000000005,-0.0171809999999998
255.4,-0.0172180000000001
255.6,-0.0179740000000001
255.80000000000007,-0.0177779999999998
256.0,-0.017697
256.20000000000005,-0.0190610000000002
256.4,-0.0216259999999999
256.6,-0.024534
256.80000000000007,-0.0267129999999999
257.0,-0.0264419999999998
257.20000000000005,-0.0251049999999999
257.4,-0.0250279999999998
257.6,-0.0240710000000001
257.80000000000007,-0.0224220000000001
258.0,-0.021595
258.20000000000005,-0.0215019999999999
258.4,-0.0207739999999998
258.6,-0.021592
258.80000000000007,-0.0227479999999999
259.0,-0.0229219999999998
259.20000000000005,-0.0230749999999999
259.4,-0.0222730000000002
259.6,-0.020969
259.80000000000007,-0.018199
260.0,-0.0191379999999998
260.20000000000005,-0.0187560000000002
260.4,-0.0171010000000002
260.6,-0.0150519999999998
260.80000000000007,-0.0165130000000002
261.0,-0.015476
261.20000000000005,-0.0152100000000001
261.4,-0.0153229999999999
261.6,-0.016833
261.80000000000007,-0.0168249999999998
262.0,-0.0165600000000001
262.20000000000005,-0.0167929999999998
262.4,-0.0192360000000002
262.6,-0.0202759999999999
262.80000000000007,-0.0225170000000001
263.0,-0.0253580000000002
263.20000000000005,-0.0250289999999999
263.4,-0.0225279999999998
263.6,-0.0204759999999999
263.80000000000007,-0.016407
264.0,-0.0142109999999999
264.20000000000005,-0.014863
264.4,-0.0170780000000001
264.6,-0.018132
264.80000000000007,-0.0208430000000001
265.0,-0.0207839999999999
265.20000000000005,-0.0215079999999998
265.4,-0.0214379999999998
265.6,-0.0213930000000002
265.80000000000007,-0.020569
266.0,-0.0206539999999999
266.20000000000005,-0.0197090000000002
266.4,-0.0202119999999998
266.6,-0.0197280000000001
266.80000000000007,-0.019565
267.0,-0.0193479999999999
267.20000000000005,-0.0196960000000001
267.4,-0.0196550000000002
267.6,-0.0188489999999998
267.80000000000007,-0.0178920000000002
268.0,-0.0173800000000001
268.20000000000005,-0.0178220000000002
268.4,-0.0171190000000001
268.6,-0.0183849999999998
268.80000000000007,-0.0191460000000001
269.0,-0.0215680000000002
269.20000000000005,-0.0230160000000001
269.4,-0.0232800000000001
269.6,-0.0233639999999999
269.80000000000007,-0.0243229999999998
270.0,-0.0229370000000002
270.20000000000005,-0.0196040000000001
270.4,-0.0193620000000001
270.6,-0.0211860000000001
270.80000000000007,-0.0229469999999998
271.0,-0.0244970000000002
271.20000000000005,-0.0259900000000001
271.4,-0.0260489999999999
271.6,-0.0244499999999998
271.80000000000007,-0.0234879999999999
272.0,-0.024839
272.20000000000005,-0.0271660000000002
272.4,-0.0284559999999998
272.6,-0.0296850000000001
272.80000000000007,-0.0306229999999998
273.0,-0.0302299999999999
273.20000000000005,-0.0267490000000001
273.4,-0.0257239999999998
273.6,-0.0245769999999998
273.80000000000007,-0.0242200000000001
274.0,-0.0220350000000002
274.20000000000005,-0.022996
274.4,-0.0209649999999999
274.6,-0.019273
274.80000000000007,-0.0179680000000002
275.0,-0.0182380000000002
275.20000000000005,-0.0183759999999999
275.4,-0.0196960000000001
275.6,-0.02224
275.80000000000007,-0.0222850000000001
276.0,-0.023997
276.20000000000005,-0.0258150000000001
276.4,-0.0272139999999998
276.6,-0.0252430000000001
276.80000000000007,-0.0250500000000002
277.0,-0.022119
277.20000000000005,-0.019876
277.4,-0.019066
277.6,-0.0202659999999998
277.80000000000007,-0.020356
278.0,-0.0225499999999998
278.20000000000005,-0.0246460000000001
278.4,-0.026145
278.6,-0.0263849999999998
278.80000000000007,-0.0260639999999998
279.0,-0.0241700000000002
279.20000000000005,-0.0215520000000002
279.4,-0.01865
279.6,-0.0168500000000002
279.80000000000007,-0.0163199999999998
280.0,-0.0179019999999998
280.20000000000005,-0.0203760000000001
280.4,-0.020464
280.6,-0.0188260000000002
280.80000000000007,-0.018596
281.0,-0.0185379999999999
281.20000000000005,-0.0165600000000001
281.4,-0.0157340000000001
281.6,-0.0166409999999999
281.80000000000007,-0.0176980000000002
282.0,-0.018596
282.20000000000005,-0.020439
282.4,-0.0227309999999998
282.6,-0.0231949999999998
282.80000000000007,-0.0224290000000002
283.0,-0.0210020000000001
283.20000000000005,-0.020839
283.4,-0.021462
283.6,-0.0243510000000002
283.80000000000007,-0.0257119999999999
284.0,-0.0269750000000001
284.20000000000005,-0.0264269999999999
284.4,-0.0244680000000001
284.6,-0.021014
284.80000000000007,-0.01715
285.0,-0.0162970000000002
285.20000000000005,-0.0165229999999998
285.4,-0.0187789999999998
285.6,-0.0215269999999998
285.80000000000007,-0.0269099999999999
286.0,-0.0281730000000002
286.20000000000005,-0.0294970000000001
286.4,-0.0277750000000001
286.6,-0.0269340000000002
286.80000000000007,-0.0244349999999999
287.0,-0.0228700000000001
287.20000000000005,-0.0214419999999999
287.4,-0.0221819999999999
287.6,-0.0234130000000001
287.80000000000007,-0.023327
288.0,-0.0241500000000001
288.20000000000005,-0.0237500000000001
288.4,-0.0224459999999999
288.6,-0.0206919999999999
288.80000000000007,-0.0215830000000001
289.0,-0.0219960000000001
289.20000000000005,-0.0224090000000001
289.4,-0.023924
289.6,-0.0248569999999999
289.80000000000007,-0.0245190000000001
290.0,-0.0229240000000001
290.20000000000005,-0.023009
290.4,-0.022488
290.6,-0.0239180000000001
290.80000000000007,-0.0242900000000001
291.0,-0.0256220000000002
291.20000000000005,-0.0260069999999998
291.4,-0.0265189999999999
291.6,-0.0245609999999998
291.80000000000007,-0.0243639999999998
292.0,-0.024153
292.20000000000005,-0.0239479999999998
292.4,-0.0224190000000001
292.6,-0.0218669999999998
292.80000000000007,-0.022043
293.0,-0.0228209999999999
293.20000000000005,-0.0230489999999998
293.4,-0.0248050000000001
293.6,-0.025417
293.80000000000007,-0.027012
294.0,-0.0272190000000001
294.20000000000005,-0.028791
294.4,-0.0280770000000001
294.6,-0.0281929999999999
294.80000000000007,-0.026199
295.0,-0.024826
295.20000000000005,-0.0216899999999999
295.4,-0.0223620000000002
295.6,-0.0230939999999999
295.80000000000007,-0.0234529999999999
296.0,-0.0212280000000002
296.20000000000005,-0.0202949999999999
296.4,-0.0178319999999998
296.6,-0.0169329999999998
296.80000000000007,-0.0174509999999998
297.0,-0.0208680000000001
297.20000000000005,-0.0233400000000001
297.4,-0.024731
297.6,-0.0249610000000002
297.80000000000007,-0.0235099999999999
298.0,-0.0216790000000002
298.20000000000005,-0.0220660000000001
298.4,-0.0207929999999998
298.6,-0.018208
298.80000000000007,-0.0164620000000002
299.0,-0.0169459999999999
299.20000000000005,-0.015962
299.4,-0.0175710000000002
299.5999999999999,-0.0177780000000002
299.79999999999995,-0.0200790000000001
299.9999999999999,-0.0226580000000002
300.19999999999993,-0.0231160000000001
300.4,-0.0229650000000003
300.5999999999999,-0.0225390000000003
300.79999999999995,-0.0227460000000001
300.9999999999999,-0.0243150000000003
301.19999999999993,-0.0267520000000003
301.4,-0.0280830000000003
301.5999999999999,-0.0296650000000002
301.79999999999995,-0.0300310000000001
301.9999999999999,-0.0284860000000002
302.19999999999993,-0.0267070000000002
302.4,-0.0267470000000003
302.5999999999999,-0.0279260000000003
302.79999999999995,-0.0294130000000001
302.9999999999999,-0.0318730000000002
303.19999999999993,-0.0324080000000002
303.4,-0.0333510000000001
303.5999999999999,-0.0325070000000002
303.79999999999995,-0.0328820000000003
303.9999999999999,-0.0323690000000003
304.19999999999993,-0.0323930000000003
304.4,-0.0302790000000001
304.5999999999999,-0.0298780000000002
304.79999999999995,-0.0291370000000001
304.9999999999999,-0.0277650000000002
305.19999999999993,-0.0269020000000002
305.4,-0.0263620000000002
305.5999999999999,-0.0279320000000002
305.79999999999995,-0.0290710000000002
305.9999999999999,-0.0298600000000002
306.19999999999993,-0.0295790000000002
306.4,-0.0304470000000003
306.5999999999999,-0.0297020000000003
306.79999999999995,-0.0284170000000001
306.9999999999999,-0.0272540000000003
307.19999999999993,-0.0280870000000001
307.4,-0.0306980000000003
307.5999999999999,-0.0316450000000001
307.79999999999995,-0.0312590000000001
307.9999999999999,-0.0309680000000003
308.19999999999993,-0.0287510000000001
308.4,-0.0263680000000001
308.5999999999999,-0.0246930000000002
308.79999999999995,-0.0251160000000001
308.9999999999999,-0.0256500000000001
309.19999999999993,-0.0288660000000002
309.4,-0.0308150000000002
309.5999999999999,-0.0332940000000001
309.79999999999995,-0.0338170000000002
309.9999999999999,-0.0342370000000002
310.19999999999993,-0.0317970000000003
310.4,-0.0295370000000001
310.5999999999999,-0.0275670000000003
310.79999999999995,-0.0274000000000003
310.9999999999999,-0.0291470000000002
311.19999999999993,-0.0318450000000003
311.4,-0.0349090000000003
311.5999999999999,-0.0361380000000002
311.79999999999995,-0.0365320000000002
311.9999999999999,-0.0358330000000002
312.19999999999993,-0.0360380000000002
312.4,-0.0347890000000001
312.5999999999999,-0.0338110000000002
312.79999999999995,-0.0324870000000001
312.9999999999999,-0.0321470000000001
313.19999999999993,-0.0296910000000001
313.4,-0.0261660000000001
313.5999999999999,-0.0253050000000001
313.79999999999995,-0.0243550000000001
313.9999999999999,-0.0237440000000002
314.19999999999993,-0.0261130000000002
314.4,-0.0308330000000003
314.5999999999999,-0.0331900000000002
314.79999999999995,-0.0351460000000003
314.9999999999999,-0.0344520000000001
315.19999999999993,-0.0317770000000001
315.4,-0.0284400000000002
315.5999999999999,-0.0267400000000002
315.79999999999995,-0.0265040000000003
315.9999999999999,-0.0275830000000001
316.19999999999993,-0.0289780000000001
316.4,-0.0295110000000002
316.5999999999999,-0.0283140000000001
316.79999999999995,-0.0263130000000002
316.9999999999999,-0.0267970000000001
317.19999999999993,-0.0283050000000002
317.4,-0.0298630000000001
317.5999999999999,-0.0323050000000002
317.79999999999995,-0.0356110000000002
317.9999999999999,-0.0355410000000002
318.19999999999993,-0.0324970000000002
318.4,-0.0295860000000003
318.5999999999999,-0.0278530000000001
318.79999999999995,-0.0263090000000001
318.9999999999999,-0.0254810000000003
319.19999999999993,-0.0279810000000002
319.4,-0.0304720000000002
319.5999999999999,-0.0315270000000003
319.79999999999995,-0.0317170000000002
319.9999999999999,-0.0320980000000001
320.19999999999993,-0.0306890000000001
320.4,-0.0301960000000003
320.5999999999999,-0.0289350000000001
320.79999999999995,-0.0292810000000003
320.9999999999999,-0.0304690000000003
321.19999999999993,-0.0320850000000001
321.4,-0.0328930000000002
321.5999999999999,-0.0354550000000002
321.79999999999995,-0.0357740000000001
321.9999999999999,-0.0338730000000002
322.19999999999993,-0.0322090000000001
322.4,-0.0308610000000002
322.5999999999999,-0.0298870000000002
322.79999999999995,-0.0307170000000003
322.9999999999999,-0.0326820000000003
323.19999999999993,-0.0338040000000001
323.4,-0.0351070000000002
323.5999999999999,-0.0373490000000003
323.79999999999995,-0.0387960000000002
323.9999999999999,-0.0388290000000002
324.19999999999993,-0.0392310000000002
324.4,-0.0384650000000001
324.5999999999999,-0.0360040000000001
324.79999999999995,-0.0347980000000003
324.9999999999999,-0.0351190000000003
325.19999999999993,-0.0366940000000002
325.4,-0.0371020000000001
325.5999999999999,-0.0373240000000001
325.79999999999995,-0.0360780000000002
325.9999999999999,-0.0359490000000002
326.19999999999993,-0.0332640000000001
326.4,-0.0318850000000001
326.5999999999999,-0.0316250000000002
326.79999999999995,-0.0322310000000003
326.9999999999999,-0.0312140000000002
327.19999999999993,-0.0322110000000002
327.4,-0.0318030000000002
327.5999999999999,-0.0298160000000002
327.79999999999995,-0.0262180000000002
327.9999999999999,-0.0255570000000002
328.19999999999993,-0.0257270000000002
328.4,-0.0291920000000003
328.5999999999999,-0.0314240000000003
328.79999999999995,-0.0333170000000002
328.9999999999999,-0.0322990000000003
329.19999999999993,-0.0304640000000002
329.4,-0.0288990000000002
329.5999999999999,-0.0286770000000002
329.79999999999995,-0.0291840000000003
329.9999999999999,-0.0305200000000003
330.19999999999993,-0.0317650000000002
330.4,-0.0307590000000002
330.5999999999999,-0.0311820000000002
330.79999999999995,-0.0316020000000001
330.9999999999999,-0.0326770000000002
331.19999999999993,-0.0329120000000002
331.4,-0.0340120000000001
331.5999999999999,-0.0344660000000003
331.79999999999995,-0.0341360000000001
331.9999999999999,-0.0318310000000001
332.19999999999993,-0.0309350000000001
332.4,-0.0295150000000001
332.5999999999999,-0.0280850000000001
332.79999999999995,-0.0259260000000003
332.9999999999999,-0.0246190000000001
333.19999999999993,-0.0234380000000002
333.4,-0.0249880000000002
333.5999999999999,-0.0274600000000002
333.79999999999995,-0.0314110000000003
333.9999999999999,-0.0358570000000002
334.19999999999993,-0.0388300000000001
334.4,-0.0404760000000001
334.5999999999999,-0.0393070000000002
334.79999999999995,-0.0375810000000003
334.9999999999999,-0.0361170000000001
335.19999999999993,-0.0336220000000002
335.4,-0.0303620000000002
335.5999999999999,-0.0273740000000002
335.79999999999995,-0.0258470000000001
335.9999999999999,-0.0252610000000002
336.19999999999993,-0.0266600000000001
336.4,-0.0284090000000001
336.5999999999999,-0.0316030000000002
336.79999999999995,-0.0342440000000001
336.9999999999999,-0.0367980000000003
337.19999999999993,-0.0375210000000001
337.4,-0.0395990000000001
337.5999999999999,-0.0399190000000002
337.79999999999995,-0.0399810000000002
337.9999999999999,-0.0363490000000001
338.19999999999993,-0.0363710000000001
338.4,-0.0345770000000003
338.5999999999999,-0.0342220000000002
338.79999999999995,-0.0326150000000002
338.9999999999999,-0.0334370000000001
339.19999999999993,-0.0316480000000003
339.4,-0.0306210000000002
339.5999999999999,-0.0294470000000002
339.79999999999995,-0.0306360000000003
339.9999999999999,-0.0313790000000002
340.19999999999993,-0.0326230000000002
340.4,-0.0328480000000002
340.5999999999999,-0.0357430000000003
340.79999999999995,-0.0373340000000002
340.9999999999999,-0.0388550000000003
341.19999999999993,-0.0389610000000002
341.4,-0.0377680000000002
341.5999999999999,-0.0335350000000003
341.79999999999995,-0.0295620000000003
341.9999999999999,-0.0264910000000002
342.19999999999993,-0.0255990000000001
342.4,-0.0282130000000002
342.5999999999999,-0.0295620000000003
342.79999999999995,-0.0298890000000002
342.9999999999999,-0.0298650000000002
343.19999999999993,-0.0314260000000001
343.4,-0.0305540000000001
343.5999999999999,-0.0312690000000002
343.79999999999995,-0.0312980000000002
343.9999999999999,-0.0324400000000002
344.19999999999993,-0.0315290000000001
344.4,-0.0310930000000002
344.5999999999999,-0.0289510000000001
344.79999999999995,-0.0293400000000001
344.9999999999999,-0.0311680000000003
345.19999999999993,-0.0346790000000001
345.4,-0.0367960000000002
345.5999999999999,-0.0379930000000001
345.79999999999995,-0.0360870000000002
345.9999999999999,-0.0335590000000003
346.19999999999993,-0.0305050000000002
346.4,-0.0280540000000002
346.5999999999999,-0.0293610000000001
346.79999999999995,-0.0326660000000003
346.9999999999999,-0.0340040000000001
347.19999999999993,-0.0327840000000001
347.4,-0.0322270000000002
347.5999999999999,-0.0316710000000002
347.79999999999995,-0.0328780000000001
347.9999999999999,-0.0337000000000002
348.19999999999993,-0.0353950000000002
348.4,-0.0364390000000003
348.5999999999999,-0.0366320000000002
348.79999999999995,-0.0342590000000002
348.9999999999999,-0.0332180000000001
349.19999999999993,-0.0333110000000003
349.4,-0.0350150000000002
349.5999999999999,-0.0357870000000002
349.79999999999995,-0.0367420000000002
349.9999999999999,-0.0363770000000003
350.19999999999993,-0.0356820000000002
350.4,-0.0337500000000001
350.5999999999999,-0.0308710000000003
350.79999999999995,-0.0293130000000001
350.9999999999999,-0.0294470000000002
351.19999999999993,-0.0297780000000003
351.4,-0.0300060000000002
351.5999999999999,-0.0314260000000001
351.79999999999995,-0.0328960000000002
351.9999999999999,-0.0329000000000001
352.19999999999993,-0.0326100000000002
352.4,-0.0332620000000003
352.5999999999999,-0.0342530000000003
352.79999999999995,-0.0336390000000001
352.9999999999999,-0.0328080000000001
353.19999999999993,-0.0322440000000001
353.4,-0.0327700000000001
353.5999999999999,-0.0332570000000003
353.79999999999995,-0.0350240000000001
353.9999999999999,-0.0354630000000002
354.19999999999993,-0.0356150000000001
354.4,-0.0344110000000001
354.5999999999999,-0.0345070000000002
354.79999999999995,-0.0340420000000001
354.9999999999999,-0.0350020000000002
355.19999999999993,-0.0346290000000002
355.4,-0.0334470000000002
355.5999999999999,-0.0326580000000003
355.79999999999995,-0.0332410000000003
355.9999999999999,-0.0331050000000001
356.19999999999993,-0.0334760000000002
356.4,-0.0341390000000001
356.5999999999999,-0.0343150000000003
356.79999999999995,-0.0319220000000002
356.9999999999999,-0.0317340000000001
357.19999999999993,-0.0328420000000002
357.4,-0.0349780000000001
357.5999999999999,-0.0342570000000002
357.79999999999995,-0.0342050000000002
357.9999999999999,-0.0340760000000002
358.19999999999993,-0.0333970000000003
358.4,-0.0308170000000003
358.5999999999999,-0.0307220000000001
358.79999999999995,-0.0300950000000002
358.9999999999999,-0.0295650000000002
359.19999999999993,-0.0298110000000002
359.4,-0.0313390000000002
359.5999999999999,-0.0324040000000003
359.79999999999995,-0.0351310000000002
359.9999999999999,-0.0372260000000002
360.19999999999993,-0.0374900000000002
360.4,-0.0371720000000002
360.5999999999999,-0.0369000000000001
360.8,-0.0362910000000002
360.9999999999999,-0.0335780000000003
361.19999999999993,-0.0310250000000003
361.4,-0.0308540000000001
361.5999999999999,-0.0302860000000002
361.8,-0.0290830000000001
361.9999999999999,-0.0291310000000002
362.19999999999993,-0.0301480000000002
362.4,-0.0310540000000001
362.5999999999999,-0.0326910000000002
362.8,-0.0352940000000001
362.9999999999999,-0.0378630000000002
363.19999999999993,-0.0377060000000002
363.4,-0.0361240000000002
363.5999999999999,-0.0331490000000003
363.8,-0.0321700000000002
363.9999999999999,-0.0316520000000002
364.19999999999993,-0.0324900000000001
364.4,-0.0317920000000002
364.5999999999999,-0.0322920000000002
364.8,-0.0312940000000001
364.9999999999999,-0.0320070000000003
365.19999999999993,-0.0346270000000001
365.4,-0.0385890000000002
365.5999999999999,-0.0404060000000001
365.8,-0.0426950000000001
365.9999999999999,-0.0418840000000002
366.19999999999993,-0.0408930000000002
366.4,-0.0387490000000001
366.5999999999999,-0.0387900000000003
366.8,-0.0374020000000001
366.9999999999999,-0.0372580000000002
367.19999999999993,-0.0352620000000001
367.4,-0.0340130000000002
367.5999999999999,-0.0348390000000002
367.8,-0.0366930000000003
367.9999999999999,-0.0373700000000003
368.19999999999993,-0.0379170000000002
368.4,-0.0399630000000001
368.5999999999999,-0.0397610000000001
368.8,-0.0382820000000001
368.9999999999999,-0.0379260000000001
369.19999999999993,-0.0382300000000002
369.4,-0.0375630000000002
369.5999999999999,-0.0375970000000003
369.8,-0.0369300000000001
369.9999999999999,-0.0360310000000001
370.19999999999993,-0.0354230000000002
370.4,-0.0352230000000002
370.5999999999999,-0.0335440000000002
370.8,-0.0329450000000002
370.9999999999999,-0.0327110000000001
371.19999999999993,-0.0327420000000002
371.4,-0.0336850000000001
371.5999999999999,-0.0331800000000002
371.8,-0.0320200000000001
371.9999999999999,-0.0314190000000003
372.19999999999993,-0.0321750000000002
372.4,-0.0318170000000002
372.5999999999999,-0.0327360000000003
372.8,-0.0345650000000001
372.9999999999999,-0.0361340000000003
373.19999999999993,-0.0354800000000001
373.4,-0.0336060000000002
373.5999999999999,-0.0326390000000003
373.8,-0.0321530000000003
373.9999999999999,-0.0317320000000003
374.19999999999993,-0.0316930000000001
374.4,-0.0321340000000003
374.5999999999999,-0.0323880000000003
374.8,-0.0323130000000002
374.9999999999999,-0.0314580000000002
375.19999999999993,-0.0319350000000002
375.4,-0.0334310000000002
375.5999999999999,-0.0337710000000002
375.8,-0.0334800000000001
375.9999999999999,-0.0327240000000002
376.19999999999993,-0.0317970000000003
376.4,-0.0314930000000002
376.5999999999999,-0.0325080000000002
376.8,-0.0336890000000003
376.9999999999999,-0.0350340000000002
377.19999999999993,-0.0344220000000001
377.4,-0.0333740000000002
377.5999999999999,-0.0321910000000003
377.8,-0.0322600000000001
377.9999999999999,-0.0307550000000003
378.19999999999993,-0.0310180000000002
378.4,-0.0312390000000002
378.5999999999999,-0.0311080000000001
378.8,-0.0286020000000002
378.9999999999999,-0.0295470000000002
379.19999999999993,-0.0318150000000001
379.4,-0.0339330000000002
379.5999999999999,-0.0348050000000002
379.8,-0.0356780000000003
379.9999999999999,-0.0369400000000001
380.19999999999993,-0.0359320000000003
380.4,-0.0361340000000003
380.5999999999999,-0.0359360000000001
380.8,-0.0367560000000002
380.9999999999999,-0.0352010000000002
381.19999999999993,-0.0334290000000001
381.4,-0.0301520000000001
381.5999999999999,-0.0293130000000001
381.8,-0.0309340000000002
381.9999999999999,-0.0326330000000001
382.19999999999993,-0.0336800000000001
382.4,-0.0345330000000001
382.5999999999999,-0.0347110000000001
382.8,-0.0330690000000002
382.9999999999999,-0.0340410000000002
383.19999999999993,-0.0349570000000001
383.4,-0.0339910000000003
383.5999999999999,-0.0348560000000002
383.8,-0.0354810000000003
383.9999999999999,-0.0347870000000003
384.19999999999993,-0.0352660000000002
384.4,-0.0367180000000002
384.5999999999999,-0.0368830000000002
384.8,-0.0367600000000003
384.9999999999999,-0.0371990000000002
385.19999999999993,-0.0386510000000002
385.4,-0.0407820000000003
385.5999999999999,-0.0407790000000003
385.8,-0.0409670000000002
385.9999999999999,-0.0410220000000003
386.19999999999993,-0.0396020000000001
386.4,-0.0366570000000001
386.5999999999999,-0.0352360000000002
386.8,-0.0338060000000002
386.9999999999999,-0.0323670000000002
387.19999999999993,-0.0323910000000002
387.4,-0.0342210000000002
387.5999999999999,-0.0366980000000003
387.8,-0.0385840000000001
387.9999999999999,-0.0403490000000001
388.19999999999993,-0.0412210000000001
388.4,-0.0425020000000002
388.5999999999999,-0.0421500000000001
388.8,-0.0435220000000002
388.9999999999999,-0.0429090000000003
389.19999999999993,-0.0430050000000001
389.4,-0.0407810000000001
389.5999999999999,-0.0393870000000002
389.8,-0.0371730000000003
389.9999999999999,-0.0376490000000002
390.19999999999993,-0.0367150000000002
390.4,-0.0373530000000001
390.5999999999999,-0.0374110000000003
390.8,-0.0366680000000001
390.9999999999999,-0.0328260000000002
391.19999999999993,-0.0305690000000002
391.4,-0.0298290000000003
391.5999999999999,-0.0294040000000002
391.8,-0.0308470000000002
391.9999999999999,-0.0335370000000001
392.19999999999993,-0.0346210000000002
392.4,-0.0354790000000002
392.5999999999999,-0.0386400000000002
392.8,-0.0394380000000003
392.9999999999999,-0.0403060000000001
393.19999999999993,-0.0416660000000002
393.4,-0.0431380000000003
393.5999999999999,-0.0423990000000003
393.8,-0.0421590000000002
393.9999999999999,-0.0438540000000002
394.19999999999993,-0.0466180000000002
394.4,-0.0469600000000003
394.5999999999999,-0.0469250000000003
394.8,-0.0465250000000001
394.9999999999999,-0.0440910000000003
395.19999999999993,-0.0402750000000002
395.4,-0.0382320000000002
395.5999999999999,-0.0384330000000001
395.8,-0.0392890000000001
395.9999999999999,-0.0410450000000002
396.19999999999993,-0.0421240000000002
396.4,-0.0436450000000001
396.5999999999999,-0.0438790000000002
396.8,-0.0454380000000003
396.9999999999999,-0.0452930000000002
397.19999999999993,-0.0464570000000001
397.4,-0.0450080000000001
397.5999999999999,-0.0427190000000001
397.8,-0.0396250000000002
397.9999999999999,-0.0380210000000003
398.19999999999993,-0.0369670000000001
398.4,-0.0360110000000002
398.5999999999999,-0.0366330000000001
398.8,-0.0370060000000003
398.9999999999999,-0.0382660000000001
399.19999999999993,-0.0390460000000001
399.4,-0.0415480000000001
399.5999999999999,-0.0436710000000002
399.8,-0.0437120000000001
399.9999999999999,-0.0440330000000002
400.19999999999993,-0.0429660000000002
400.4,-0.0423360000000001
400.5999999999999,-0.0403640000000002
400.8,-0.0401330000000001
400.9999999999999,-0.0388630000000003
401.19999999999993,-0.0372870000000002
401.4,-0.0364240000000002
401.5999999999999,-0.0366600000000001
401.8,-0.0379280000000001
401.9999999999999,-0.0396830000000001
402.19999999999993,-0.0430900000000002
402.4,-0.0441330000000002
402.5999999999999,-0.0440630000000001
402.8,-0.0428610000000002
402.9999999999999,-0.0401290000000003
403.19999999999993,-0.0392060000000002
403.4,-0.0399090000000001
403.5999999999999,-0.0408180000000002
403.8,-0.0417120000000001
403.9999999999999,-0.0422030000000002
404.19999999999993,-0.0414820000000002
404.4,-0.0394830000000001
404.5999999999999,-0.0390360000000002
404.8,-0.0390740000000002
404.9999999999999,-0.0405010000000003
405.19999999999993,-0.0401310000000001
405.4,-0.0405770000000003
405.5999999999999,-0.0396420000000001
405.8,-0.0383220000000001
405.9999999999999,-0.0388330000000003
406.19999999999993,-0.0393150000000002
406.4,-0.0412850000000002
406.5999999999999,-0.0416800000000001
406.8,-0.0429800000000002
406.9999999999999,-0.0414070000000001
407.19999999999993,-0.0410950000000003
407.4,-0.0390290000000002
407.5999999999999,-0.0389610000000002
407.8,-0.0397890000000002
407.9999999999999,-0.0412950000000003
408.19999999999993,-0.0422900000000001
408.4,-0.0434210000000001
408.5999999999999,-0.0447080000000001
408.8,-0.0442130000000002
408.9999999999999,-0.0431430000000001
409.19999999999993,-0.0423580000000003
409.4,-0.0411690000000002
409.5999999999999,-0.0399410000000002
409.8,-0.0392170000000002
409.9999999999999,-0.0401860000000002
410.19999999999993,-0.0406420000000002
410.4,-0.0409780000000001
410.5999999999999,-0.0413550000000002
410.8,-0.0413460000000003
410.9999999999999,-0.0429690000000002
411.19999999999993,-0.0437290000000001
411.4,-0.0456980000000002
411.5999999999999,-0.0460770000000001
411.8,-0.0476320000000003
411.9999999999999,-0.0441260000000003
412.19999999999993,-0.0425170000000001
412.4,-0.0407790000000003
412.5999999999999,-0.0420220000000002
412.8,-0.0408740000000003
412.9999999999999,-0.0427080000000001
413.19999999999993,-0.0450290000000002
413.4,-0.0446530000000002
413.5999999999999,-0.0403950000000001
413.8,-0.0371620000000001
413.9999999999999,-0.0361010000000001
414.19999999999993,-0.0347260000000002
414.4,-0.0349600000000003
414.5999999999999,-0.0371830000000001
414.8,-0.0403020000000002
414.9999999999999,-0.0412750000000001
415.19999999999993,-0.0412570000000003
415.4,-0.0435980000000002
415.5999999999999,-0.0452030000000003
415.8,-0.0461670000000002
415.9999999999999,-0.0461310000000001
416.19999999999993,-0.0460590000000002
416.4,-0.0442320000000002
416.5999999999999,-0.0434390000000002
416.8,-0.0419240000000002
416.9999999999999,-0.0409860000000001
417.19999999999993,-0.0405880000000002
417.4,-0.0400000000000002
417.5999999999999,-0.0395240000000003
417.8,-0.0396080000000003
417.9999999999999,-0.0401260000000003
418.19999999999993,-0.0400250000000002
418.4,-0.0414420000000002
418.5999999999999,-0.0411660000000002
418.8,-0.0410510000000001
418.9999999999999,-0.0425920000000001
419.19999999999993,-0.0447560000000002
419.4,-0.0444110000000002
419.5999999999999,-0.0445150000000003
419.8,-0.0447880000000002
419.9999999999999,-0.0427010000000003
420.19999999999993,-0.0398390000000001
420.4,-0.0382640000000003
420.5999999999999,-0.0388990000000002
420.8,-0.0409100000000002
420.9999999999999,-0.0417710000000002
421.19999999999993,-0.0430610000000002
421.4,-0.0435680000000002
421.5999999999999,-0.0433050000000001
421.8,-0.0413830000000001
421.9999999999999,-0.0411430000000001
422.19999999999993,-0.0426450000000002
422.4,-0.0447460000000001
422.5999999999999,-0.0465950000000001
422.8,-0.0488620000000001
422.9999999999999,-0.0503420000000003
423.19999999999993,-0.0506560000000002
423.4,-0.0512290000000001
423.5999999999999,-0.0510440000000003
423.8,-0.0487390000000003
423.9999999999999,-0.0453950000000002
424.19999999999993,-0.0434270000000003
424.4,-0.0411820000000002
424.5999999999999,-0.0398940000000003
424.8,-0.0397620000000003
424.9999999999999,-0.0425220000000001
425.19999999999993,-0.0428760000000001
425.4,-0.0430830000000002
425.5999999999999,-0.0416890000000003
425.8,-0.0413240000000001
425.9999999999999,-0.0415780000000003
426.19999999999993,-0.0430900000000002
426.4,-0.0450370000000002
426.5999999999999,-0.0481270000000002
426.8,-0.0508510000000002
426.9999999999999,-0.0497730000000002
427.19999999999993,-0.0469430000000001
427.4,-0.0444130000000002
427.5999999999999,-0.0438310000000001
427.8,-0.0416890000000003
427.9999999999999,-0.0408940000000002
428.19999999999993,-0.0421490000000002
428.4,-0.0434230000000002
428.5999999999999,-0.0429040000000002
428.8,-0.0437310000000001
428.9999999999999,-0.0449170000000003
429.19999999999993,-0.0449640000000002
429.4,-0.0464900000000001
429.5999999999999,-0.0487780000000002
429.8,-0.0501460000000002
429.9999999999999,-0.0505030000000001
430.19999999999993,-0.0521250000000002
430.4,-0.0515880000000001
430.5999999999999,-0.0491720000000002
430.8,-0.0474460000000003
430.9999999999999,-0.0469250000000003
431.19999999999993,-0.0442330000000001
431.4,-0.0427780000000002
431.5999999999999,-0.0421980000000001
431.8,-0.0444030000000001
431.9999999999999,-0.0451620000000001
432.19999999999993,-0.0471040000000002
432.4,-0.0472610000000002
432.5999999999999,-0.0494450000000001
432.8,-0.0502100000000003
432.9999999999999,-0.0501940000000002
433.19999999999993,-0.0482860000000002
433.4,-0.0471220000000003
433.5999999999999,-0.0448610000000002
433.8,-0.0407350000000001
433.9999999999999,-0.0393340000000002
434.19999999999993,-0.0415130000000001
434.4,-0.0426280000000003
434.5999999999999,-0.0424290000000002
434.8,-0.0427950000000001
434.9999999999999,-0.0425880000000002
435.19999999999993,-0.0409500000000002
435.4,-0.0421240000000002
435.5999999999999,-0.0449220000000001
435.8,-0.0488450000000002
435.9999999999999,-0.0505220000000001
436.19999999999993,-0.0515760000000002
436.4,-0.0518330000000002
436.5999999999999,-0.0506960000000002
436.8,-0.0475400000000001
436.9999999999999,-0.0444080000000002
437.19999999999993,-0.0424430000000002
437.4,-0.0415640000000001
437.5999999999999,-0.0423260000000003
437.8,-0.0457810000000002
437.9999999999999,-0.0508410000000001
438.19999999999993,-0.0536230000000002
438.4,-0.0517770000000001
438.5999999999999,-0.0487110000000001
438.8,-0.0445160000000002
438.9999999999999,-0.0408180000000002
439.19999999999993,-0.0382370000000003
439.4,-0.0389110000000001
439.5999999999999,-0.0392920000000003
439.8,-0.0398630000000002
439.9999999999999,-0.0414200000000002
440.19999999999993,-0.0434790000000002
440.4,-0.0442010000000001
440.5999999999999,-0.0457180000000001
440.8,-0.0475510000000003
440.9999999999999,-0.0492200000000002
441.19999999999993,-0.0516820000000002
441.4,-0.0539290000000003
441.5999999999999,-0.0551670000000001
441.8,-0.0546330000000001
441.9999999999999,-0.0509540000000001
442.19999999999993,-0.0440660000000001
442.4,-0.0406380000000001
442.5999999999999,-0.0387660000000003
442.8,-0.0380910000000003
442.9999999999999,-0.0392470000000002
443.19999999999993,-0.0420980000000001
443.4,-0.0429450000000002
443.5999999999999,-0.0438450000000001
443.8,-0.0456410000000002
443.9999999999999,-0.0480820000000001
444.19999999999993,-0.0495990000000001
444.4,-0.0508380000000001
444.5999999999999,-0.0493410000000003
444.8,-0.0469100000000002
444.9999999999999,-0.0450400000000001
445.19999999999993,-0.0433370000000001
445.4,-0.0425540000000002
445.5999999999999,-0.0431760000000003
445.8,-0.0438430000000003
445.9999999999999,-0.0425430000000002
446.19999999999993,-0.0420610000000003
446.4,-0.0397210000000003
446.5999999999999,-0.0376000000000003
446.8,-0.0379490000000002
446.9999999999999,-0.0403180000000003
447.19999999999993,-0.0435660000000002
447.4,-0.0471250000000003
447.5999999999999,-0.0500730000000002
447.8,-0.0508230000000002
447.9999999999999,-0.0511080000000001
448.19999999999993,-0.0491840000000003
448.4,-0.0477800000000001
448.5999999999999,-0.0479320000000003
448.8,-0.0481840000000002
448.9999999999999,-0.0481100000000003
449.19999999999993,-0.0509310000000002
449.4,-0.0522000000000002
449.5999999999999,-0.0524120000000003
449.8,-0.0512060000000003
449.9999999999999,-0.0506460000000001
450.19999999999993,-0.0475770000000002
450.4,-0.0464180000000002
450.5999999999999,-0.0450570000000003
450.8,-0.0443850000000003
450.9999999999999,-0.0436180000000001
451.19999999999993,-0.0435720000000001
451.4,-0.0418880000000001
451.5999999999999,-0.0424190000000002
451.8,-0.0436590000000003
451.9999999999999,-0.0451470000000002
452.19999999999993,-0.0457520000000002
452.4,-0.0478100000000001
452.5999999999999,-0.0481420000000001
452.8,-0.0478000000000002
452.9999999999999,-0.0471840000000003
453.19999999999993,-0.0485800000000002
453.4,-0.0499850000000001
453.5999999999999,-0.0515270000000003
453.8,-0.0521850000000001
453.9999999999999,-0.0533220000000003
454.19999999999993,-0.0530350000000001
454.4,-0.0523570000000002
454.5999999999999,-0.0508160000000001
454.8,-0.0520090000000001
454.9999999999999,-0.0522940000000002
455.19999999999993,-0.0528380000000001
455.4,-0.0537020000000001
455.5999999999999,-0.0548440000000003
455.8,-0.0545560000000002
455.9999999999999,-0.0530130000000002
456.19999999999993,-0.0518890000000002
456.4,-0.0487350000000001
456.5999999999999,-0.0470640000000002
456.8,-0.0472440000000002
456.9999999999999,-0.0482710000000001
457.19999999999993,-0.0493360000000002
457.4,-0.0519880000000001
457.5999999999999,-0.0533620000000001
457.8,-0.0528850000000002
457.9999999999999,-0.0526160000000002
458.19999999999993,-0.0517110000000002
458.4,-0.0501860000000002
458.5999999999999,-0.0484430000000002
458.8,-0.0463550000000001
458.9999999999999,-0.0448430000000001
459.19999999999993,-0.0435520000000002
459.4,-0.0426080000000002
459.5999999999999,-0.0424950000000001
459.8,-0.0434140000000002
459.9999999999999,-0.0436990000000001
460.19999999999993,-0.0457170000000002
460.4,-0.0479910000000003
460.5999999999999,-0.0496090000000002
460.8,-0.0498550000000002
460.9999999999999,-0.0498600000000002
461.19999999999993,-0.0488350000000001
461.4,-0.0487170000000003
461.5999999999999,-0.0493280000000002
461.8,-0.0494070000000002
461.9999999999999,-0.0505600000000001
462.19999999999993,-0.0517630000000002
462.4,-0.0525760000000001
462.5999999999999,-0.0534450000000001
462.8,-0.0553380000000003
462.9999999999999,-0.0548800000000002
463.19999999999993,-0.0551020000000002
463.4,-0.0544320000000002
463.5999999999999,-0.0537280000000002
463.8,-0.0514880000000002
463.9999999999999,-0.0502380000000002
464.19999999999993,-0.0485040000000003
464.4,-0.0471090000000002
464.5999999999999,-0.0463290000000002
464.8,-0.0482740000000001
464.9999999999999,-0.0492160000000001
465.19999999999993,-0.0490670000000001
465.4,-0.0486340000000002
465.5999999999999,-0.0472600000000003
465.8,-0.0463620000000002
465.9999999999999,-0.0462160000000002
466.19999999999993,-0.0476480000000001
466.4,-0.0505710000000001
466.5999999999999,-0.0539800000000001
466.8,-0.0547480000000002
466.9999999999999,-0.0546820000000003
467.19999999999993,-0.0550060000000003
467.4,-0.0558820000000002
467.5999999999999,-0.0566350000000002
467.8,-0.0568360000000003
467.9999999999999,-0.0572240000000001
468.19999999999993,-0.0561540000000002
468.4,-0.0527300000000001
468.5999999999999,-0.0490120000000002
468.8,-0.0476390000000002
468.9999999999999,-0.0470690000000002
469.19999999999993,-0.0476220000000002
469.4,-0.0480920000000002
469.5999999999999,-0.0485600000000001
469.8,-0.0499180000000001
469.9999999999999,-0.0520810000000002
470.19999999999993,-0.0510670000000001
470.4,-0.0502580000000001
470.5999999999999,-0.0487530000000002
470.8,-0.0475560000000001
470.9999999999999,-0.0470120000000002
471.19999999999993,-0.0480810000000002
471.4,-0.0479340000000001
471.5999999999999,-0.0488310000000002
471.8,-0.0469230000000002
471.9999999999999,-0.0453010000000002
472.19999999999993,-0.0449710000000003
472.4,-0.0477490000000002
472.5999999999999,-0.0496230000000001
472.8,-0.0529030000000001
472.9999999999999,-0.0550830000000002
473.19999999999993,-0.0545520000000001
473.4,-0.0511240000000001
473.5999999999999,-0.0475370000000001
473.8,-0.0449750000000002
473.9999999999999,-0.0454510000000001
474.19999999999993,-0.0481310000000001
474.4,-0.0498330000000002
474.5999999999999,-0.0518540000000002
474.8,-0.0512050000000001
474.9999999999999,-0.0498080000000002
475.19999999999993,-0.0488190000000001
475.4,-0.0502720000000003
475.5999999999999,-0.0505270000000002
475.8,-0.0510390000000002
475.9999999999999,-0.0504870000000001
476.19999999999993,-0.0495060000000002
476.4,-0.0487380000000001
476.5999999999999,-0.0497110000000002
476.8,-0.0532550000000002
476.9999999999999,-0.0555370000000001
477.19999999999993,-0.0579690000000001
477.4,-0.0582550000000001
477.5999999999999,-0.0587040000000003
477.8,-0.0571060000000003
477.9999999999999,-0.0559620000000002
478.19999999999993,-0.0529690000000002
478.4,-0.0500410000000002
478.5999999999999,-0.0461470000000001
478.8,-0.0428660000000002
478.9999999999999,-0.0406050000000002
479.19999999999993,-0.0407530000000002
479.4,-0.0445650000000001
479.5999999999999,-0.0482690000000003
479.8,-0.0514580000000002
479.9999999999999,-0.0522490000000002
480.19999999999993,-0.0532760000000003
480.4,-0.0525760000000001
480.5999999999999,-0.0522320000000002
480.8,-0.0510690000000002
480.9999999999999,-0.0520510000000002
481.19999999999993,-0.0513630000000002
481.4,-0.0511070000000002
481.5999999999999,-0.0496050000000003
481.8,-0.0492540000000001
481.9999999999999,-0.0483550000000001
482.19999999999993,-0.0478550000000002
482.4,-0.0475130000000001
482.5999999999999,-0.0483300000000002
482.8,-0.0487860000000002
482.9999999999999,-0.0464910000000002
483.19999999999993,-0.0439270000000002
483.4,-0.0434130000000001
483.5999999999999,-0.0442190000000002
483.8,-0.0468660000000002
483.9999999999999,-0.0499300000000002
484.19999999999993,-0.0535580000000002
484.4,-0.0543660000000001
484.5999999999999,-0.0539740000000001
484.8,-0.0521290000000003
484.9999999999999,-0.0516850000000002
485.19999999999993,-0.0512040000000002
485.4,-0.0513250000000002
485.5999999999999,-0.0539280000000002
485.8,-0.0557220000000002
485.9999999999999,-0.0584230000000003
486.19999999999993,-0.0600150000000001
486.4,-0.0617730000000003
486.5999999999999,-0.0591550000000002
486.8,-0.0573550000000002
486.9999999999999,-0.0560840000000002
487.19999999999993,-0.0553450000000002
487.4,-0.0557400000000003
487.5999999999999,-0.0569700000000001
487.8,-0.0580130000000003
487.9999999999999,-0.0577670000000003
488.19999999999993,-0.0581100000000003
488.4,-0.0564010000000001
488.5999999999999,-0.0540250000000002
488.8,-0.0521320000000002
488.9999999999999,-0.0502180000000003
489.19999999999993,-0.0484200000000001
489.4,-0.0470540000000001
489.5999999999999,-0.0482960000000003
489.8,-0.0494720000000001
489.9999999999999,-0.0509200000000003
490.19999999999993,-0.0529440000000003
490.4,-0.0538290000000001
490.5999999999999,-0.0531460000000001
490.8,-0.0514610000000002
490.9999999999999,-0.0512050000000001
491.19999999999993,-0.0502050000000002
491.4,-0.0493470000000002
491.5999999999999,-0.0506650000000001
491.8,-0.0535470000000002
491.9999999999999,-0.0549030000000001
492.19999999999993,-0.0545990000000002
492.4,-0.0559420000000001
492.5999999999999,-0.0555440000000002
492.8,-0.0547890000000002
492.9999999999999,-0.0538190000000002
493.19999999999993,-0.0549950000000001
493.4,-0.0569110000000001
493.5999999999999,-0.0584630000000001
493.8,-0.0597980000000002
493.9999999999999,-0.0605840000000001
494.19999999999993,-0.0610020000000002
494.4,-0.0594390000000002
494.5999999999999,-0.0568890000000001
494.8,-0.0528810000000001
494.9999999999999,-0.0497740000000002
495.19999999999993,-0.0484480000000002
495.4,-0.0478740000000001
495.5999999999999,-0.0473130000000001
495.8,-0.0492190000000003
495.9999999999999,-0.0494580000000002
496.19999999999993,-0.0482590000000002
496.4,-0.0470520000000003
496.5999999999999,-0.0479820000000001
496.8,-0.0479350000000002
496.9999999999999,-0.0487870000000001
497.19999999999993,-0.0499830000000003
497.4,-0.0507220000000001
497.5999999999999,-0.0514240000000001
497.8,-0.0502890000000002
497.9999999999999,-0.0520810000000002
498.19999999999993,-0.0535740000000002
498.4,-0.0570770000000002
498.5999999999999,-0.0590480000000002
498.8,-0.0628600000000001
498.9999999999999,-0.0625050000000002
499.19999999999993,-0.0627180000000002
499.4,-0.0608240000000002
499.5999999999999,-0.0589150000000002
499.8,-0.0552100000000002
499.9999999999999,-0.0539980000000002
500.19999999999993,-0.0532250000000003
500.4,-0.0524040000000003
500.5999999999999,-0.0526220000000001
500.8,-0.0550760000000003
500.9999999999999,-0.0565360000000001
501.19999999999993,-0.0566700000000002
501.4,-0.0571000000000001
501.5999999999999,-0.0580200000000001
501.8,-0.0579940000000003
501.9999999999999,-0.0591110000000001
502.19999999999993,-0.0608450000000002
502.4,-0.0629680000000001
502.5999999999999,-0.0648340000000002
502.8,-0.0648600000000001
502.9999999999999,-0.0630410000000003
503.19999999999993,-0.0603830000000003
503.4,-0.0577840000000002
503.5999999999999,-0.0563630000000001
503.8,-0.0573980000000002
503.9999999999999,-0.0605060000000001
504.19999999999993,-0.0617620000000003
504.4,-0.0629200000000003
504.5999999999999,-0.0629900000000003
504.8,-0.0636060000000002
504.9999999999999,-0.0625290000000002
505.19999999999993,-0.0627530000000002
505.4,-0.0610280000000003
505.5999999999999,-0.0591410000000003
505.8,-0.0575600000000002
505.9999999999999,-0.0560950000000002
506.19999999999993,-0.0552120000000002
506.4,-0.0560710000000002
506.5999999999999,-0.0573510000000001
506.8,-0.0558560000000001
506.9999999999999,-0.0541320000000002
507.19999999999993,-0.0536380000000003
507.4,-0.0540570000000002
507.5999999999999,-0.0534820000000002
507.8,-0.0544800000000003
507.9999999999999,-0.0562620000000002
508.19999999999993,-0.0574630000000002
508.4,-0.0586130000000002
508.5999999999999,-0.0613660000000002
508.8,-0.0611650000000001
508.9999999999999,-0.0614620000000001
509.19999999999993,-0.0587760000000001
509.4,-0.0568660000000003
509.5999999999999,-0.0551230000000002
509.8,-0.0552320000000001
509.9999999999999,-0.0552240000000001
510.19999999999993,-0.0580170000000002
510.4,-0.0589050000000002
510.5999999999999,-0.0587640000000002
510.8,-0.0605220000000001
510.9999999999998,-0.0611600000000003
511.1999999999998,-0.0619180000000001
511.3999999999999,-0.0612320000000001
511.5999999999999,-0.0602800000000003
511.8,-0.0590400000000002
511.9999999999998,-0.0586320000000002
512.1999999999998,-0.0575860000000001
512.3999999999999,-0.0563340000000003
512.5999999999999,-0.0554450000000001
512.8,-0.0557940000000003
512.9999999999998,-0.0563440000000001
513.1999999999998,-0.0564930000000001
513.3999999999999,-0.0574480000000001
513.5999999999999,-0.0575340000000001
513.8,-0.0573770000000002
513.9999999999998,-0.0568130000000002
514.1999999999998,-0.0559670000000003
514.3999999999999,-0.0566680000000001
514.5999999999999,-0.0603280000000001
514.8,-0.0608350000000001
514.9999999999998,-0.0609880000000002
515.1999999999998,-0.0617360000000002
515.3999999999999,-0.0634220000000003
515.5999999999999,-0.0627440000000001
515.8,-0.0631720000000002
515.9999999999998,-0.0620670000000003
516.1999999999998,-0.0614700000000001
516.3999999999999,-0.0604470000000001
516.5999999999999,-0.0588710000000003
516.8,-0.0568640000000002
516.9999999999998,-0.0565110000000002
517.1999999999998,-0.0569980000000003
517.3999999999999,-0.0563530000000003
517.5999999999999,-0.0570500000000002
517.8,-0.0581400000000003
517.9999999999998,-0.0589710000000003
518.1999999999998,-0.0581590000000002
518.3999999999999,-0.0576690000000001
518.5999999999999,-0.0566960000000003
518.8,-0.0575690000000002
518.9999999999998,-0.0569590000000002
519.1999999999998,-0.0571960000000002
519.3999999999999,-0.0568040000000003
519.5999999999999,-0.0571970000000001
519.8,-0.0562750000000003
519.9999999999998,-0.0574140000000003
520.1999999999998,-0.0574330000000002
520.3999999999999,-0.0575650000000003
520.5999999999999,-0.0576050000000001
520.8,-0.0579640000000001
520.9999999999998,-0.0578290000000001
521.1999999999998,-0.0572960000000002
521.3999999999999,-0.0582920000000002
521.5999999999999,-0.0589280000000003
521.8,-0.0593430000000001
521.9999999999998,-0.0599720000000001
522.1999999999998,-0.0605770000000003
522.3999999999999,-0.0590970000000001
522.5999999999999,-0.0579620000000002
522.8,-0.0560340000000001
522.9999999999998,-0.0560010000000001
523.1999999999998,-0.0564700000000002
523.3999999999999,-0.0578300000000002
523.5999999999999,-0.0557840000000002
523.8,-0.0557250000000002
523.9999999999998,-0.0540130000000003
524.1999999999998,-0.0537030000000002
524.3999999999999,-0.0533440000000002
524.5999999999999,-0.0555870000000002
524.8,-0.0559610000000001
524.9999999999998,-0.0569370000000002
525.1999999999998,-0.0559370000000003
525.3999999999999,-0.0536380000000003
525.5999999999999,-0.0508200000000003
525.8,-0.0495740000000002
525.9999999999998,-0.0480130000000003
526.1999999999998,-0.0471480000000001
526.3999999999999,-0.0462630000000001
526.5999999999999,-0.0455190000000003
526.8,-0.0471420000000002
526.9999999999998,-0.0482570000000002
527.1999999999998,-0.0510130000000002
527.3999999999999,-0.0534770000000002
527.5999999999999,-0.0566410000000001
527.8,-0.0556140000000002
527.9999999999998,-0.0581260000000003
528.1999999999998,-0.0585720000000002
528.3999999999999,-0.0593710000000002
528.5999999999999,-0.0576020000000001
528.8,-0.0593080000000001
528.9999999999998,-0.0572980000000002
529.1999999999998,-0.0574120000000002
529.3999999999999,-0.0576950000000002
529.5999999999999,-0.0609290000000002
529.8,-0.0609750000000002
529.9999999999998,-0.0615120000000002
530.1999999999998,-0.0613460000000003
530.3999999999999,-0.0616850000000002
530.5999999999999,-0.0620370000000003
530.8,-0.0625130000000002
530.9999999999998,-0.0631300000000001
531.1999999999998,-0.0629110000000001
531.3999999999999,-0.0639260000000001
531.5999999999999,-0.0617650000000002
531.8,-0.0597090000000002
531.9999999999998,-0.0583750000000002
532.1999999999998,-0.0585930000000003
532.3999999999999,-0.0572000000000001
532.5999999999999,-0.0583080000000002
532.8,-0.0587430000000002
532.9999999999998,-0.0590220000000001
533.1999999999998,-0.0589410000000001
533.3999999999999,-0.0592300000000003
533.5999999999999,-0.0566620000000002
533.8,-0.0542010000000001
533.9999999999998,-0.0533400000000001
534.1999999999998,-0.0548640000000002
534.3999999999999,-0.0572660000000002
534.5999999999999,-0.0613960000000002
534.8,-0.0641810000000002
534.9999999999998,-0.0642600000000002
535.1999999999998,-0.0614970000000001
535.3999999999999,-0.0589820000000003
535.5999999999999,-0.0577310000000002
535.8,-0.0592620000000001
535.9999999999998,-0.0621490000000002
536.1999999999998,-0.0638500000000001
536.3999999999999,-0.0649530000000002
536.5999999999999,-0.0639820000000002
536.8,-0.0632590000000001
536.9999999999998,-0.0624520000000001
537.1999999999998,-0.0619760000000002
537.3999999999999,-0.0613130000000001
537.5999999999999,-0.0615750000000001
537.8,-0.0605910000000002
537.9999999999998,-0.0573580000000002
538.1999999999998,-0.0544650000000002
538.3999999999999,-0.0527710000000003
538.5999999999999,-0.0536840000000002
538.8,-0.0550290000000002
538.9999999999998,-0.0576480000000001
539.1999999999998,-0.0600810000000002
539.3999999999999,-0.0628170000000003
539.5999999999999,-0.0627100000000002
539.8,-0.0638190000000002
539.9999999999998,-0.0646570000000001
540.1999999999998,-0.0663990000000003
540.3999999999999,-0.0655670000000001
540.5999999999999,-0.0645100000000002
540.8,-0.0626940000000002
540.9999999999998,-0.0619610000000001
541.1999999999998,-0.0623600000000001
541.3999999999999,-0.0626040000000003
541.5999999999999,-0.0627690000000003
541.8,-0.0610090000000003
541.9999999999998,-0.0588360000000003
542.1999999999998,-0.0552680000000003
542.3999999999999,-0.0540450000000003
542.5999999999999,-0.0545610000000003
542.8,-0.0571680000000003
542.9999999999998,-0.0587770000000003
543.1999999999998,-0.0602260000000003
543.3999999999999,-0.0611690000000002
543.5999999999999,-0.0619740000000001
543.8,-0.0624330000000001
543.9999999999998,-0.0642520000000002
544.1999999999998,-0.0655100000000001
544.3999999999999,-0.0651870000000003
544.5999999999999,-0.0655640000000001
544.8,-0.0655250000000002
544.9999999999998,-0.0655660000000002
545.1999999999998,-0.0644550000000001
545.3999999999999,-0.0664000000000002
545.5999999999999,-0.0661220000000002
545.8,-0.0659700000000003
545.9999999999998,-0.0648220000000001
546.1999999999998,-0.0666010000000001
546.3999999999999,-0.0672640000000002
546.5999999999999,-0.0682540000000002
546.8,-0.0670610000000002
546.9999999999998,-0.0656340000000001
547.1999999999998,-0.0630630000000003
547.3999999999999,-0.0593170000000002
547.5999999999999,-0.0578660000000001
547.8,-0.0566610000000002
547.9999999999998,-0.0562470000000001
548.1999999999998,-0.0543350000000002
548.3999999999999,-0.0543680000000001
548.5999999999999,-0.0543830000000002
548.8,-0.0571620000000001
548.9999999999998,-0.0584440000000001
549.1999999999998,-0.0626340000000003
549.3999999999999,-0.0642870000000002
549.5999999999999,-0.0637910000000001
549.8,-0.0614830000000001
549.9999999999998,-0.0598990000000001
550.1999999999998,-0.0580510000000003
550.3999999999999,-0.0592100000000002
550.5999999999999,-0.0607710000000001
550.8,-0.0613240000000001
550.9999999999998,-0.0622730000000002
551.1999999999998,-0.0620500000000001
551.3999999999999,-0.0607610000000002
551.5999999999999,-0.0596870000000002
551.8,-0.0590900000000003
551.9999999999998,-0.0592610000000002
552.1999999999998,-0.0592790000000003
552.3999999999999,-0.0580440000000002
552.5999999999999,-0.0570530000000002
552.8,-0.0552990000000002
552.9999999999998,-0.0564580000000003
553.1999999999998,-0.0588260000000002
553.3999999999999,-0.0612480000000001
553.5999999999999,-0.0624080000000002
553.8,-0.0651350000000001
553.9999999999998,-0.0644010000000001
554.1999999999998,-0.0620450000000001
554.3999999999999,-0.0605290000000002
554.5999999999999,-0.0609510000000002
554.8,-0.0613780000000001
554.9999999999998,-0.0619840000000002
555.1999999999998,-0.0635290000000001
555.3999999999999,-0.0661550000000001
555.5999999999999,-0.0670680000000001
555.8,-0.0671160000000001
555.9999999999998,-0.0672850000000002
556.1999999999998,-0.0679570000000002
556.3999999999999,-0.0696550000000002
556.5999999999999,-0.0703380000000002
556.8,-0.0701540000000002
556.9999999999998,-0.0689060000000001
557.1999999999998,-0.0675020000000001
557.3999999999999,-0.0624580000000003
557.5999999999999,-0.0617340000000001
557.8,-0.0622330000000002
557.9999999999998,-0.0629190000000001
558.1999999999998,-0.0627230000000003
558.3999999999999,-0.0638490000000002
558.5999999999999,-0.0631690000000002
558.8,-0.0635410000000002
558.9999999999998,-0.0643450000000003
559.1999999999998,-0.0654920000000003
559.3999999999999,-0.0660600000000002
559.5999999999999,-0.0665650000000002
559.8,-0.0671600000000003
559.9999999999998,-0.0673400000000001
560.1999999999998,-0.0664910000000003
560.3999999999999,-0.0663960000000003
560.5999999999999,-0.0648220000000001
560.8,-0.0617870000000002
560.9999999999998,-0.0587230000000003
561.1999999999998,-0.0562660000000001
561.3999999999999,-0.0555750000000001
561.5999999999999,-0.0567760000000001
561.8,-0.0589580000000002
561.9999999999998,-0.0606550000000003
562.1999999999998,-0.0620980000000002
562.3999999999999,-0.0621700000000002
562.5999999999999,-0.0628520000000001
562.8,-0.0626270000000002
562.9999999999998,-0.0617540000000003
563.1999999999998,-0.0623090000000001
563.3999999999999,-0.0626090000000001
563.5999999999999,-0.0612320000000001
563.8,-0.0611070000000002
563.9999999999998,-0.0616330000000002
564.1999999999998,-0.0620780000000003
564.3999999999999,-0.0612530000000002
564.5999999999999,-0.0613950000000003
564.8,-0.0623470000000001
564.9999999999998,-0.0644550000000001
565.1999999999998,-0.0653880000000002
565.3999999999999,-0.0672050000000001
565.5999999999999,-0.0675770000000002
565.8,-0.0660380000000002
565.9999999999998,-0.0639570000000002
566.1999999999998,-0.0619420000000001
566.3999999999999,-0.0601330000000002
566.5999999999999,-0.0587570000000001
566.8,-0.0601090000000001
566.9999999999998,-0.0611980000000003
567.1999999999998,-0.0609780000000002
567.3999999999999,-0.0599290000000003
567.5999999999999,-0.0586630000000001
567.8,-0.0557070000000001
567.9999999999998,-0.0540370000000003
568.1999999999998,-0.0558220000000002
568.3999999999999,-0.0592330000000003
568.5999999999999,-0.0622560000000003
568.8,-0.0648580000000003
568.9999999999998,-0.0649340000000002
569.1999999999998,-0.0611020000000002
569.3999999999999,-0.0554950000000002
569.5999999999999,-0.0510690000000002
569.8,-0.0505260000000002
569.9999999999998,-0.0521110000000002
570.1999999999998,-0.0546230000000003
570.3999999999999,-0.0598450000000001
570.5999999999999,-0.0658410000000002
570.8,-0.0683780000000002
570.9999999999998,-0.0699610000000001
571.1999999999998,-0.0707080000000002
571.3999999999999,-0.0688630000000003
571.5999999999999,-0.0669270000000001
571.8,-0.0656700000000003
571.9999999999998,-0.0642450000000003
572.1999999999998,-0.0634590000000001
572.3999999999999,-0.0651550000000003
572.5999999999999,-0.0668600000000001
572.7999999999997,-0.0661670000000003
572.9999999999998,-0.0642950000000002
573.1999999999998,-0.0636270000000003
573.3999999999999,-0.0610610000000002
573.5999999999999,-0.0570770000000002
573.7999999999997,-0.0563700000000002
573.9999999999998,-0.0572980000000002
574.1999999999998,-0.0595460000000003
574.3999999999999,-0.0607670000000002
574.5999999999999,-0.0620360000000002
574.7999999999997,-0.0616430000000003
574.9999999999998,-0.0625140000000001
575.1999999999998,-0.0625580000000003
575.3999999999999,-0.0626750000000002
575.5999999999999,-0.0624470000000001
575.7999999999997,-0.0608030000000001
575.9999999999998,-0.0596160000000003
576.1999999999998,-0.0582880000000003
576.3999999999999,-0.0586110000000001
576.5999999999999,-0.0588830000000002
576.7999999999997,-0.0605480000000002
576.9999999999998,-0.0630750000000002
577.1999999999998,-0.0650710000000003
577.3999999999999,-0.0662070000000001
577.5999999999999,-0.0665820000000001
577.7999999999997,-0.0669330000000001
577.9999999999998,-0.0666960000000003
578.1999999999998,-0.0656020000000001
578.3999999999999,-0.0656320000000001
578.5999999999999,-0.0669040000000003
578.7999999999997,-0.0683820000000001
578.9999999999998,-0.0672040000000002
579.1999999999998,-0.0666520000000001
579.3999999999999,-0.0653560000000001
579.5999999999999,-0.0641010000000001
579.7999999999997,-0.0636320000000001
579.9999999999998,-0.0630320000000002
580.1999999999998,-0.0617760000000002
580.3999999999999,-0.0615900000000002
580.5999999999999,-0.0620660000000001
580.7999999999997,-0.0607350000000002
580.9999999999998,-0.0621840000000002
581.1999999999998,-0.0650540000000001
581.3999999999999,-0.0657770000000002
581.5999999999999,-0.0646850000000003
581.7999999999997,-0.0647780000000002
581.9999999999998,-0.0647780000000002
582.1999999999998,-0.0632840000000003
582.3999999999999,-0.0611460000000001
582.5999999999999,-0.0607480000000002
582.7999999999997,-0.0589760000000001
582.9999999999998,-0.0581270000000002
583.1999999999998,-0.0580300000000002
583.3999999999999,-0.0594460000000003
583.5999999999999,-0.0621910000000003
583.7999999999997,-0.0677600000000002
583.9999999999998,-0.0691530000000002
584.1999999999998,-0.0683070000000003
584.3999999999999,-0.0663820000000001
584.5999999999999,-0.0633040000000002
584.7999999999997,-0.0595850000000002
584.9999999999998,-0.0582190000000002
585.1999999999998,-0.0606260000000002
585.3999999999999,-0.0646590000000002
585.5999999999999,-0.0679550000000002
585.7999999999997,-0.0697260000000001
585.9999999999998,-0.0716070000000002
586.1999999999998,-0.0727400000000002
586.3999999999999,-0.0726880000000003
586.5999999999999,-0.0714040000000002
586.7999999999997,-0.0710440000000003
586.9999999999998,-0.0702890000000002
587.1999999999998,-0.0682220000000002
587.3999999999999,-0.0667200000000003
587.5999999999999,-0.0667560000000002
587.7999999999997,-0.0668970000000002
587.9999999999998,-0.0677710000000002
588.1999999999998,-0.0688240000000002
588.3999999999999,-0.0710830000000002
588.5999999999999,-0.0727650000000001
588.7999999999997,-0.0750190000000001
588.9999999999998,-0.0744830000000003
589.1999999999998,-0.0734340000000002
589.3999999999999,-0.0696920000000003
589.5999999999999,-0.0666490000000001
589.7999999999997,-0.0602490000000002
589.9999999999998,-0.0570040000000002
590.1999999999998,-0.0573110000000003
590.3999999999999,-0.0622860000000002
590.5999999999999,-0.0651880000000002
590.7999999999997,-0.0687000000000002
590.9999999999998,-0.0713230000000002
591.1999999999998,-0.0705110000000002
591.3999999999999,-0.0655350000000003
591.5999999999999,-0.0625990000000003
591.7999999999997,-0.0613760000000003
591.9999999999998,-0.0610440000000003
592.1999999999998,-0.0614060000000002
592.3999999999999,-0.0651450000000002
592.5999999999999,-0.0666200000000003
592.7999999999997,-0.0656150000000002
592.9999999999998,-0.0640060000000002
593.1999999999998,-0.0640380000000002
593.3999999999999,-0.0612040000000002
593.5999999999999,-0.0596510000000003
593.7999999999997,-0.0627430000000002
593.9999999999998,-0.0656580000000002
594.1999999999998,-0.0680720000000001
594.3999999999999,-0.0704250000000001
594.5999999999999,-0.0733980000000003
594.7999999999997,-0.0731660000000002
594.9999999999998,-0.0722010000000001
595.1999999999998,-0.0706160000000002
595.3999999999999,-0.0699030000000002
595.5999999999999,-0.0713220000000003
595.7999999999997,-0.0732410000000003
595.9999999999998,-0.0736640000000001
596.1999999999998,-0.0732290000000002
596.3999999999999,-0.0725630000000001
596.5999999999999,-0.0693790000000003
596.7999999999997,-0.0658030000000002
596.9999999999998,-0.0645950000000001
597.1999999999998,-0.0643290000000003
597.3999999999999,-0.0637270000000003
597.5999999999999,-0.0629720000000002
597.7999999999997,-0.0632900000000002
597.9999999999998,-0.0631950000000003
