Time (s),Shift (nm)
0.0,0.0
0.1999999999999886,2.4000000000246047e-05
0.4000000000000341,0.0021789999999999
0.6000000000000227,0.0058830000000003
0.8000000000000114,0.008893
1.0,0.0098769999999999
1.1999999999999886,0.010987
1.400000000000034,0.0109570000000003
1.6000000000000227,0.0095840000000002
1.8000000000000114,0.0065280000000003
2.0,0.0067090000000002
2.1999999999999886,0.0069799999999999
2.400000000000034,0.0068809999999999
2.6000000000000227,0.005227
2.800000000000012,0.0043269999999999
3.0,0.000458
3.1999999999999886,-0.0014599999999997
3.400000000000034,-0.0034099999999996
3.6000000000000227,-0.0013769999999997
3.8000000000000114,0.0009960000000002
4.0,0.0055529999999999
4.199999999999989,0.0076490000000002
4.400000000000034,0.0100109999999999
4.600000000000023,0.0085299999999999
4.800000000000011,0.0066710000000003
5.0,0.003727
5.199999999999989,0.0029060000000002
5.400000000000034,0.0040979999999999
5.600000000000023,0.006739
5.800000000000011,0.008753
6.0,0.0098739999999999
6.199999999999989,0.0108410000000001
6.400000000000034,0.0087079999999999
6.600000000000023,0.0069669999999999
6.800000000000011,0.0062630000000001
7.0,0.0069530000000002
7.199999999999989,0.007648
7.400000000000034,0.0097450000000001
7.600000000000023,0.0105870000000001
7.800000000000011,0.0117980000000001
8.0,0.0113669999999999
8.199999999999989,0.009783
8.400000000000034,0.0082140000000001
8.600000000000023,0.0057979999999999
8.800000000000011,0.003254
9.0,0.0035540000000002
9.199999999999989,0.0082189999999999
9.400000000000034,0.01078
9.600000000000025,0.0129010000000002
9.800000000000011,0.0139089999999999
10.0,0.0136730000000002
10.199999999999989,0.0082189999999999
10.400000000000034,0.0048380000000003
10.600000000000025,0.0038900000000001
10.800000000000011,0.0049230000000002
11.0,0.0063090000000003
11.199999999999989,0.0101270000000002
11.400000000000034,0.0135610000000001
11.600000000000025,0.0146589999999999
11.800000000000011,0.0143699999999999
12.0,0.0120230000000001
12.199999999999989,0.0091460000000003
12.400000000000034,0.0050210000000001
12.600000000000025,0.0027810000000001
12.800000000000011,-5.599999999983396e-05
13.0,-0.0008759999999998
13.199999999999989,-0.0003489999999999
13.400000000000034,0.0018199999999999
13.600000000000025,0.0027760000000003
13.800000000000011,0.0036819999999999
14.0,0.0043969999999999
14.199999999999989,0.0041809999999999
14.400000000000034,0.0038550000000001
14.600000000000025,0.0044319999999999
14.800000000000011,0.005576
15.0,0.0078040000000001
15.199999999999989,0.0078370000000003
15.400000000000034,0.0069020000000001
15.600000000000025,0.0042170000000001
15.800000000000011,0.001087
16.0,-0.0019559999999998
16.19999999999999,-0.0019299999999997
16.400000000000034,1.4000000000180536e-05
16.600000000000023,0.00293
16.80000000000001,0.0058880000000001
17.0,0.0065330000000001
17.19999999999999,0.0060760000000001
17.400000000000034,0.0058630000000001
17.600000000000023,0.0053870000000002
17.80000000000001,0.004509
18.0,0.0037250000000002
18.19999999999999,0.0011939999999999
18.400000000000038,-0.004604
18.600000000000023,-0.008696
18.80000000000001,-0.0095939999999998
19.0,-0.0086459999999997
19.19999999999999,-0.0051899999999998
19.400000000000038,0.0003839999999999
19.600000000000023,0.0040590000000002
19.80000000000001,0.005675
20.0,0.0076279999999999
20.19999999999999,0.0091140000000002
20.400000000000038,0.0095140000000002
20.600000000000023,0.010148
20.80000000000001,0.0098640000000003
21.0,0.0103650000000001
21.19999999999999,0.009382
21.400000000000038,0.0078740000000001
21.600000000000023,0.0073069999999999
21.80000000000001,0.0090500000000002
22.0,0.008305
22.19999999999999,0.0082660000000003
22.400000000000038,0.007997
22.600000000000023,0.0057370000000003
22.80000000000001,0.0013480000000001
23.0,-0.0021369999999998
23.19999999999999,-0.0024169999999998
23.400000000000038,-0.0008939999999997
23.600000000000023,0.0023340000000002
23.80000000000001,0.0044059999999999
24.0,0.0042900000000001
24.19999999999999,0.0028770000000002
24.400000000000038,0.0020299999999999
24.600000000000023,0.0002590000000002
24.80000000000001,-0.0001919999999997
25.0,0.0021520000000001
25.19999999999999,0.0017810000000002
25.400000000000038,-0.0004469999999998
25.600000000000023,-0.0019469999999999
25.80000000000001,-0.0007799999999997
26.0,-0.0015529999999999
26.19999999999999,-0.0015529999999999
26.400000000000038,0.00021
26.600000000000023,0.0020199999999999
26.80000000000001,0.0002820000000003
27.0,-0.000852
27.19999999999999,-0.000229
27.400000000000038,0.0013879999999999
27.600000000000023,0.0034130000000001
27.80000000000001,0.0043839999999999
28.0,0.0067060000000003
28.19999999999999,0.007438
28.400000000000038,0.0067240000000001
28.600000000000023,0.005471
28.80000000000001,0.0051149999999999
29.0,0.0033210000000001
29.19999999999999,0.001481
29.400000000000038,-0.0008779999999997
29.600000000000023,-0.0038399999999998
29.80000000000001,-0.0035549999999999
30.0,-0.0029719999999997
30.19999999999999,-0.0026609999999998
30.400000000000038,-0.0035119999999997
30.600000000000023,-0.0051889999999996
30.80000000000001,-0.0061039999999996
31.0,-0.0033879999999997
31.19999999999999,-0.0013579999999997
31.400000000000038,0.0022709999999999
31.600000000000023,0.0073929999999999
31.80000000000001,0.010609
32.0,0.0096370000000001
32.19999999999999,0.0074279999999999
32.400000000000034,0.0051960000000002
32.60000000000002,0.0048639999999999
32.80000000000001,0.0037500000000001
33.0,0.0023620000000001
33.19999999999999,0.0037320000000002
33.400000000000034,0.0058420000000003
33.60000000000002,0.0054199999999999
33.80000000000001,0.0067129999999999
34.0,0.0077830000000003
34.19999999999999,0.0081869999999999
34.400000000000034,0.0070070000000002
34.60000000000002,0.0062079999999999
34.80000000000001,0.0034339999999999
35.0,0.0028480000000001
35.19999999999999,0.0031530000000001
35.400000000000034,0.0055460000000002
35.60000000000002,0.0066480000000002
35.80000000000001,0.0072100000000001
36.0,0.0055390000000001
36.19999999999999,0.0048859999999999
36.400000000000034,0.0040029999999999
36.60000000000002,0.0052820000000002
36.80000000000001,0.0053780000000003
37.0,0.0046270000000001
37.19999999999999,0.0027430000000001
37.400000000000034,0.000766
37.60000000000002,-0.0003669999999997
37.80000000000001,0.0008690000000002
38.0,0.0038650000000002
38.19999999999999,0.0063810000000001
38.400000000000034,0.0067790000000003
38.60000000000002,0.0042710000000001
38.80000000000001,0.0018769999999999
39.0,0.000604
39.19999999999999,-0.0009169999999998
39.400000000000034,-0.0016979999999997
39.60000000000002,-0.0010249999999998
39.80000000000001,0.0011890000000001
40.0,0.0015780000000003
40.19999999999999,0.0031370000000001
40.400000000000034,0.0031820000000002
40.60000000000002,0.0048509999999999
40.80000000000001,0.0048449999999999
41.0,0.006221
41.19999999999999,0.0039549999999999
41.400000000000034,0.0026380000000001
41.60000000000002,0.0004400000000002
41.80000000000001,-0.0015739999999997
42.0,-0.0038999999999997
42.19999999999999,-0.0044909999999998
42.400000000000034,-0.0022659999999996
42.60000000000002,-9.799999999993148e-05
42.80000000000001,0.001363
43.0,0.0013680000000002
43.19999999999999,0.0022230000000003
43.400000000000034,0.000197
43.60000000000002,-0.0039899999999999
43.80000000000001,-0.007365
44.0,-0.0064189999999997
44.19999999999999,-0.0047229999999998
44.400000000000034,-0.002809
44.60000000000002,-0.0006149999999998
44.80000000000001,-0.0004789999999998
45.0,-0.003991
45.19999999999999,-0.0056659999999997
45.400000000000034,-0.0067949999999998
45.60000000000002,-0.007422
45.80000000000001,-0.0056729999999998
46.0,-0.0018849999999996
46.19999999999999,-0.0009879999999999
46.400000000000034,0.001357
46.60000000000002,0.0033479999999999
46.80000000000001,0.0039709999999999
47.0,0.0013490000000002
47.19999999999999,0.0007890000000001
47.400000000000034,-0.0006059999999998
47.60000000000002,5.999999999994898e-05
47.80000000000001,0.0024520000000003
48.0,0.0045839999999999
48.19999999999999,0.0033449999999999
48.400000000000034,0.0016739999999999
48.60000000000002,-5.8999999999809205e-05
48.80000000000001,-0.001325
49.0,-0.0003539999999997
49.19999999999999,0.0008259999999999
49.400000000000034,0.000976
49.60000000000002,0.0001630000000001
49.80000000000001,-0.0031609999999999
50.0,-0.005249
50.19999999999999,-0.0042179999999998
50.400000000000034,-0.0029099999999999
50.60000000000002,-0.0016309999999997
50.80000000000001,0.0009879999999999
51.0,0.0017330000000002
51.19999999999999,0.001805
51.400000000000034,0.002358
51.60000000000002,0.0037090000000001
51.80000000000001,0.0041920000000001
52.0,0.004798
52.19999999999999,0.0023509999999999
52.400000000000034,-0.0006119999999998
52.60000000000002,-0.0021239999999997
52.80000000000001,-0.0036179999999998
53.0,-0.0042759999999999
53.19999999999999,-0.0043349999999997
53.400000000000034,-0.0035179999999996
53.60000000000002,-0.0039219999999997
53.80000000000001,-0.003149
54.0,-0.0039069999999998
54.19999999999999,-0.0039229999999998
54.400000000000034,-0.0027049999999997
54.60000000000002,-0.0009339999999999
54.80000000000001,-0.0041129999999998
55.0,-0.007667
55.19999999999999,-0.0100089999999997
55.400000000000034,-0.0133009999999997
55.60000000000002,-0.0153849999999997
55.80000000000001,-0.0119159999999998
56.0,-0.0067299999999996
56.19999999999999,-0.0023079999999997
56.400000000000034,0.0013719999999999
56.60000000000002,0.0002880000000002
56.80000000000001,-0.0040919999999999
57.0,-0.0062289999999998
57.19999999999999,-0.005274
57.400000000000034,-0.002736
57.60000000000002,0.0007019999999999
57.80000000000001,0.005144
58.0,0.006847
58.19999999999999,0.0048630000000002
58.400000000000034,0.0015270000000002
58.60000000000002,-0.0007539999999996
58.80000000000001,-0.0008759999999998
59.0,-0.0012059999999998
59.19999999999999,-0.0008649999999996
59.400000000000034,-0.0008099999999999
59.60000000000002,0.000804
59.80000000000001,0.001147
60.00000000000006,0.0007140000000003
60.19999999999999,-0.0010339999999997
60.400000000000034,-0.0019589999999998
60.599999999999966,-0.0041799999999998
60.80000000000001,-0.0054799999999999
61.00000000000006,-0.0063549999999996
61.19999999999999,-0.0048029999999998
61.400000000000034,-0.0030419999999997
61.599999999999966,-0.0010279999999998
61.80000000000001,-0.0020479999999998
62.00000000000006,-0.0027459999999996
62.19999999999999,-0.0029339999999997
62.400000000000034,-0.0032149999999999
62.599999999999966,-0.0042169999999996
62.80000000000001,-0.0040999999999997
63.00000000000006,-0.002332
63.19999999999999,-0.001821
63.400000000000034,-0.0005429999999999
63.599999999999966,0.0001860000000002
63.80000000000001,0.0022519999999999
64.00000000000006,0.0003130000000002
64.19999999999999,-0.0017789999999999
64.40000000000003,-0.0043239999999999
64.59999999999997,-0.0050249999999998
64.80000000000001,-0.0049539999999996
65.00000000000006,-0.0021789999999999
65.19999999999999,0.0001999999999999
65.40000000000003,0.0007410000000001
65.59999999999997,-0.0005839999999999
65.80000000000001,-0.001786
66.00000000000006,-0.001446
66.19999999999999,0.0022359999999999
66.40000000000003,0.005201
66.59999999999997,0.0064440000000001
66.80000000000001,0.0047109999999999
67.00000000000006,0.0028350000000001
67.19999999999999,-0.0019649999999997
67.40000000000003,-0.0066749999999999
67.59999999999997,-0.0081059999999997
67.80000000000001,-0.0071619999999996
68.00000000000006,-0.0061659999999998
68.19999999999999,-0.006386
68.40000000000003,-0.0042469999999998
68.59999999999997,-0.004639
68.80000000000001,-0.004636
69.00000000000006,-0.0047199999999998
69.19999999999999,-0.0049559999999999
69.40000000000003,-0.0049999999999998
69.59999999999997,-0.004099
69.80000000000001,-0.0043679999999999
70.00000000000006,-0.005954
70.19999999999999,-0.005306
70.40000000000003,-0.005999
70.59999999999997,-0.007746
70.80000000000001,-0.0087289999999997
71.00000000000006,-0.0078589999999998
71.19999999999999,-0.006386
71.40000000000003,-0.0045509999999997
71.59999999999997,-0.0006879999999997
71.80000000000001,0.0024380000000001
72.00000000000006,0.0032140000000002
72.19999999999999,0.0032390000000002
72.40000000000003,0.0028529999999999
72.59999999999997,0.0006020000000002
72.80000000000001,-0.001538
73.00000000000006,-0.002809
73.19999999999999,-0.0037539999999998
73.40000000000003,-0.0015529999999999
73.59999999999997,0.0016440000000002
73.80000000000001,0.0011480000000001
74.00000000000006,-0.0011859999999996
74.19999999999999,-0.003613
74.40000000000003,-0.0068929999999998
74.59999999999997,-0.0089939999999999
74.80000000000001,-0.009128
75.00000000000006,-0.0070099999999997
75.19999999999999,-0.004556
75.40000000000003,-0.0028829999999997
75.59999999999997,-0.0019429999999998
75.80000000000001,0.0009800000000002
76.00000000000006,0.0008509999999999
76.19999999999999,-0.0014399999999996
76.40000000000003,-0.0045219999999996
76.59999999999997,-0.005713
76.80000000000001,-0.0063159999999999
77.00000000000006,-0.0053099999999997
77.19999999999999,-0.0034719999999999
77.40000000000003,-0.0021689999999998
77.59999999999997,-0.0018599999999997
77.80000000000001,-0.0026359999999998
78.00000000000006,-0.0040489999999997
78.19999999999999,-0.0034239999999998
78.40000000000003,-0.0011199999999997
78.59999999999997,0.0003610000000002
78.80000000000001,-0.0006289999999999
79.00000000000006,-0.0017449999999996
79.19999999999999,-0.0041659999999996
79.40000000000003,-0.0066599999999996
79.59999999999997,-0.009408
79.80000000000001,-0.0103399999999997
80.00000000000006,-0.0096479999999998
80.19999999999999,-0.0082349999999999
80.40000000000003,-0.0065949999999999
80.59999999999997,-0.00455
80.80000000000001,-0.0035499999999997
81.00000000000006,-0.0035979999999997
81.19999999999999,-0.0043869999999999
81.40000000000003,-0.002707
81.59999999999997,0.0007650000000003
81.80000000000001,0.0035560000000001
82.00000000000006,0.0055590000000003
82.19999999999999,0.006253
82.40000000000003,0.0031259999999999
82.59999999999997,-0.0021529999999998
82.80000000000001,-0.0041849999999996
83.00000000000006,-0.0043779999999999
83.19999999999999,-0.0028069999999997
83.40000000000003,-0.0018699999999998
83.59999999999997,0.000213
83.80000000000001,0.0024649999999999
84.00000000000006,0.0025569999999999
84.19999999999999,0.000591
84.40000000000003,0.0003459999999999
84.59999999999997,0.0017520000000001
84.80000000000001,0.0001510000000002
85.00000000000006,-0.0008619999999996
85.19999999999999,-0.0016869999999999
85.40000000000003,-0.0012239999999996
85.59999999999997,-0.002485
85.80000000000001,-0.0026069999999998
86.00000000000006,-0.00184
86.19999999999999,3.300000000017178e-05
86.40000000000003,-0.001649
86.59999999999997,-0.0043139999999999
86.80000000000001,-0.0057909999999998
87.00000000000006,-0.006647
87.19999999999999,-0.0095139999999998
87.40000000000003,-0.0099369999999998
87.59999999999997,-0.0087899999999998
87.80000000000001,-0.0089269999999999
88.00000000000006,-0.0099199999999997
88.19999999999999,-0.0098159999999998
88.40000000000003,-0.010189
88.59999999999997,-0.0098319999999998
88.80000000000001,-0.0076199999999997
89.00000000000006,-0.0037149999999996
89.19999999999999,-3.799999999998249e-05
89.40000000000003,0.0020549999999999
89.59999999999997,0.002091
89.80000000000001,0.0019140000000001
90.00000000000006,-8.300000000005525e-05
90.2,-0.0026489999999999
90.40000000000003,-0.0021309999999998
90.59999999999997,-0.0016769999999999
90.8,-0.0023699999999999
91.00000000000006,-0.0032349999999996
91.2,-0.002564
91.40000000000003,-0.0050479999999999
91.59999999999997,-0.0069719999999997
91.8,-0.0059429999999998
92.00000000000006,-0.004747
92.2,-0.005182
92.40000000000003,-0.0053269999999998
92.59999999999997,-0.0040109999999997
92.8,-0.0056529999999996
93.00000000000006,-0.0085959999999998
93.2,-0.010561
93.40000000000003,-0.0118039999999997
93.59999999999997,-0.0124249999999999
93.8,-0.0119089999999997
94.00000000000006,-0.0102759999999997
94.2,-0.0085649999999999
94.40000000000003,-0.007819
94.59999999999997,-0.007333
94.8,-0.007152
95.00000000000006,-0.0047949999999996
95.2,-0.0037949999999997
95.40000000000003,-0.0001439999999996
95.59999999999997,0.0011179999999999
95.8,0.0029690000000002
96.00000000000006,0.002021
96.2,0.0025310000000002
96.40000000000003,0.0001860000000002
96.59999999999997,-0.001802
96.8,-0.0040869999999997
97.00000000000006,-0.004623
97.2,-0.0047949999999996
97.40000000000003,-0.0041759999999997
97.59999999999997,-0.004588
97.8,-0.0058039999999999
98.00000000000006,-0.0057989999999996
98.2,-0.0060279999999997
98.40000000000003,-0.0064389999999998
98.59999999999997,-0.0049619999999999
98.8,-0.0026939999999999
99.00000000000006,-0.002688
99.2,-0.0032109999999998
99.40000000000003,-0.0029269999999996
99.59999999999997,-0.0010149999999997
99.8,-0.0008449999999999
100.00000000000006,-0.001891
100.2,-0.0035709999999999
100.40000000000003,-0.0046209999999997
100.59999999999997,-0.0083039999999998
100.8,-0.0098499999999996
101.00000000000006,-0.0086909999999997
101.2,-0.0055
101.40000000000003,-0.0043089999999996
101.59999999999997,-0.0026409999999996
101.8,-0.0015019999999998
102.00000000000006,-0.0009369999999999
102.2,-0.000251
102.40000000000003,0.0016519999999999
102.59999999999997,0.0010590000000001
102.8,1.5000000000320313e-05
103.00000000000006,-0.0019589999999998
103.2,-0.0036169999999997
103.40000000000003,-0.005576
103.59999999999997,-0.0056419999999999
103.8,-0.00503
104.00000000000006,-0.00339
104.2,-0.0020679999999999
104.40000000000003,-0.000264
104.59999999999997,0.0009490000000003
104.8,0.0011930000000002
105.00000000000006,0.0003220000000001
105.2,-0.0022329999999999
105.40000000000003,-0.0058869999999999
105.59999999999997,-0.0087699999999997
105.8,-0.0108709999999998
106.00000000000006,-0.0117889999999998
106.2,-0.012226
106.40000000000003,-0.0123959999999998
106.59999999999997,-0.010923
106.8,-0.0105879999999998
107.00000000000006,-0.009017
107.2,-0.0071419999999999
107.40000000000003,-0.0039709999999999
107.59999999999997,-0.0043639999999998
107.8,-0.0046189999999999
108.00000000000006,-0.0067269999999997
108.2,-0.0093299999999998
108.40000000000003,-0.0116249999999999
108.59999999999997,-0.011724
108.8,-0.0090449999999999
109.00000000000006,-0.0054979999999997
109.2,-0.002469
109.40000000000003,-0.0013929999999997
109.59999999999997,-0.0007159999999997
109.8,-0.0023049999999997
110.00000000000006,-0.0041379999999997
110.2,-0.0048129999999999
110.40000000000003,-0.0036529999999999
110.59999999999997,-0.0032639999999997
110.8,-0.0036289999999996
111.00000000000006,-0.0048559999999997
111.2,-0.0048109999999996
111.40000000000003,-0.0059839999999997
111.59999999999997,-0.0065239999999997
111.8,-0.0066069999999998
112.00000000000006,-0.0052419999999999
112.2,-0.005757
112.40000000000003,-0.005052
112.59999999999997,-0.003565
112.8,-0.002615
113.00000000000006,-0.0032709999999998
113.2,-0.0025429999999997
113.40000000000003,-0.0012569999999998
113.59999999999997,-0.0021839999999997
113.8,-0.0039519999999999
114.00000000000006,-0.0051339999999999
114.2,-0.0054789999999997
114.40000000000003,-0.0066679999999998
114.59999999999997,-0.0076399999999998
114.8,-0.0065859999999999
115.00000000000006,-0.006142
115.2,-0.0063329999999997
115.40000000000003,-0.0088619999999997
115.59999999999997,-0.0099559999999998
115.8,-0.0103089999999999
116.00000000000006,-0.009748
116.2,-0.0111629999999998
116.40000000000003,-0.0106739999999998
116.59999999999997,-0.0098709999999999
116.8,-0.0101229999999996
117.00000000000006,-0.0115859999999998
117.2,-0.011098
117.40000000000003,-0.0100339999999996
117.59999999999997,-0.008639
117.8,-0.0077059999999997
118.00000000000006,-0.0045549999999998
118.2,-0.0017999999999998
118.40000000000003,-0.0006699999999999
118.59999999999997,-0.0005999999999999
118.8,-0.0001299999999999
119.00000000000006,-0.00204
119.2,-0.0044049999999997
119.40000000000003,-0.0067279999999998
119.59999999999997,-0.006955
119.8,-0.0067649999999996
120.00000000000006,-0.0047929999999998
120.2,-0.0036019999999998
120.40000000000003,-0.00259
120.59999999999997,-0.0029089999999998
120.8,-0.0032899999999997
121.00000000000006,-0.0041729999999997
121.2,-0.002669
121.40000000000003,-0.0007679999999998
121.59999999999997,0.0013610000000001
121.8,0.0015499999999999
122.00000000000006,-9.299999999967667e-05
122.2,-0.0023629999999998
122.40000000000003,-0.004591
122.59999999999997,-0.0076739999999997
122.8,-0.0101979999999999
123.00000000000006,-0.0092909999999997
123.2,-0.0088309999999998
123.40000000000003,-0.0092029999999998
123.59999999999997,-0.0096359999999999
123.8,-0.008693
124.00000000000006,-0.0097199999999997
124.2,-0.0117799999999999
124.40000000000003,-0.0130569999999998
124.59999999999997,-0.011883
124.8,-0.011174
125.00000000000006,-0.0098539999999998
125.2,-0.0082459999999997
125.40000000000003,-0.0057439999999999
125.59999999999997,-0.0070459999999998
125.8,-0.0089519999999998
126.00000000000006,-0.0122019999999998
126.2,-0.0138419999999999
126.40000000000003,-0.0154969999999998
126.59999999999997,-0.0148289999999997
126.8,-0.0154499999999999
127.00000000000006,-0.0148269999999999
127.2,-0.014577
127.40000000000003,-0.0133519999999998
127.59999999999997,-0.0137959999999996
127.8,-0.013284
128.00000000000006,-0.0127619999999999
128.2,-0.0125099999999997
128.40000000000003,-0.012048
128.59999999999997,-0.011775
128.8,-0.0115759999999998
129.00000000000006,-0.010596
129.2,-0.0098099999999998
129.40000000000003,-0.0097089999999999
129.59999999999997,-0.0077369999999996
129.8,-0.005074
130.00000000000006,-0.0045899999999998
130.2,-0.004572
130.40000000000003,-0.0047479999999997
130.59999999999997,-0.0062759999999997
130.8,-0.0078499999999999
131.00000000000006,-0.0090529999999997
131.2,-0.0089379999999996
131.40000000000003,-0.0103119999999998
131.59999999999997,-0.0099559999999998
131.8,-0.0093139999999998
132.00000000000006,-0.0094989999999999
132.2,-0.0106109999999999
132.40000000000003,-0.0112779999999999
132.59999999999997,-0.0112549999999997
132.8,-0.0120679999999997
133.00000000000006,-0.0082269999999997
133.2,-0.00583
133.40000000000003,-0.0061759999999999
133.59999999999997,-0.0080559999999998
133.8,-0.0065319999999999
134.00000000000006,-0.006609
134.2,-0.0070149999999999
134.40000000000003,-0.0051549999999997
134.59999999999997,-0.0014289999999999
134.8,-0.0005789999999996
135.00000000000006,-0.001119
135.2,-0.001659
135.40000000000003,-0.001128
135.59999999999997,-0.0022329999999999
135.8,-0.003511
136.00000000000006,-0.0070799999999997
136.2,-0.0090239999999996
136.40000000000003,-0.0105669999999999
136.59999999999997,-0.0143149999999998
136.8,-0.018183
137.00000000000006,-0.0185999999999997
137.2,-0.0174049999999996
137.40000000000003,-0.0173499999999999
137.59999999999997,-0.014504
137.8,-0.0106599999999996
138.00000000000006,-0.0080739999999996
138.2,-0.0084359999999996
138.40000000000003,-0.0075909999999996
138.59999999999997,-0.0086919999999999
138.8,-0.010402
139.00000000000006,-0.0125599999999996
139.2,-0.0135449999999996
139.40000000000003,-0.0145559999999997
139.59999999999997,-0.014018
139.8,-0.011657
140.00000000000006,-0.0083029999999997
140.2,-0.006342
140.40000000000003,-0.0062389999999998
140.59999999999997,-0.007327
140.8,-0.0102899999999999
141.00000000000006,-0.012941
141.2,-0.0148959999999997
141.40000000000003,-0.014059
141.59999999999997,-0.0136769999999999
141.8,-0.0120499999999998
142.00000000000006,-0.0117599999999997
142.2,-0.0104429999999999
142.40000000000003,-0.0080369999999998
142.59999999999997,-0.0062249999999997
142.8,-0.0059409999999999
143.00000000000006,-0.0070129999999997
143.2,-0.008817
143.40000000000003,-0.0130749999999997
143.59999999999997,-0.0140709999999999
143.8,-0.013646
144.00000000000006,-0.0115409999999998
144.2,-0.010377
144.40000000000003,-0.010691
144.59999999999997,-0.0110559999999999
144.8,-0.0109029999999998
145.00000000000006,-0.0099809999999997
145.2,-0.0087129999999997
145.40000000000003,-0.0070959999999997
145.59999999999997,-0.0057489999999997
145.8,-0.004245
146.00000000000006,-0.0032829999999997
146.2,-0.002291
146.40000000000003,-0.000998
146.59999999999997,-0.0027569999999998
146.8,-0.006637
147.00000000000006,-0.0111989999999999
147.2,-0.014755
147.40000000000003,-0.0177389999999997
147.59999999999997,-0.0174259999999999
147.8,-0.0163249999999997
148.00000000000006,-0.0123929999999998
148.2,-0.0080369999999998
148.40000000000003,-0.004788
148.59999999999997,-0.0034579999999997
148.8,-0.003219
149.00000000000006,-0.00462
149.2,-0.007022
149.40000000000003,-0.007727
149.59999999999997,-0.0079899999999999
149.8,-0.007721
150.00000000000006,-0.0069529999999997
150.2,-0.0076679999999997
150.40000000000003,-0.0088759999999998
150.59999999999997,-0.010046
150.8,-0.008699
151.00000000000006,-0.0093549999999997
151.2,-0.0084109999999997
151.40000000000003,-0.008232
151.59999999999997,-0.0087699999999997
151.8,-0.0108899999999998
152.00000000000006,-0.0110719999999999
152.2,-0.0116109999999998
152.40000000000003,-0.013182
152.59999999999997,-0.0136889999999998
152.8,-0.0130209999999997
153.00000000000006,-0.0143389999999996
153.2,-0.016048
153.40000000000003,-0.014952
153.59999999999997,-0.0135289999999996
153.8,-0.0156869999999997
154.00000000000006,-0.0166979999999998
154.2,-0.0173619999999998
154.40000000000003,-0.0184509999999997
154.59999999999997,-0.020124
154.8,-0.0185169999999996
155.00000000000006,-0.0162899999999996
155.2,-0.0141629999999999
155.40000000000003,-0.0128369999999997
155.59999999999997,-0.012083
155.8,-0.0122619999999997
156.00000000000006,-0.0132469999999997
156.2,-0.0131639999999997
156.40000000000003,-0.0123509999999997
156.59999999999997,-0.0107819999999998
156.8,-0.0088569999999998
157.00000000000006,-0.008833
157.2,-0.0085859999999997
157.40000000000003,-0.0081109999999999
157.59999999999997,-0.0083119999999996
157.8,-0.0077569999999997
158.00000000000006,-0.006758
158.2,-0.0064919999999997
158.40000000000003,-0.0080279999999999
158.59999999999997,-0.0099769999999996
158.8,-0.0128969999999997
159.00000000000006,-0.0137809999999998
159.2,-0.0134669999999998
159.40000000000003,-0.0138569999999997
159.59999999999997,-0.01235
159.8,-0.0103299999999997
160.00000000000006,-0.0092579999999999
160.2,-0.0106479999999997
160.40000000000003,-0.010307
160.59999999999997,-0.0119299999999999
160.8,-0.014831
161.00000000000006,-0.0157309999999997
161.2,-0.0121149999999996
161.40000000000003,-0.0085029999999997
161.59999999999997,-0.005338
161.8,-0.0032239999999998
162.00000000000006,-0.0027919999999999
162.2,-0.0070829999999997
162.40000000000003,-0.011587
162.59999999999997,-0.0151369999999997
162.8,-0.013999
163.00000000000006,-0.0114069999999997
163.2,-0.0083009999999998
163.40000000000003,-0.004461
163.59999999999997,-0.000877
163.8,-0.00191
164.00000000000006,-0.0042729999999999
164.2,-0.0072839999999998
164.40000000000003,-0.009522
164.59999999999997,-0.0107459999999997
164.8,-0.0112749999999999
165.00000000000006,-0.0128529999999997
165.2,-0.0115479999999998
165.40000000000003,-0.0119189999999997
165.59999999999997,-0.0108369999999999
165.8,-0.0117229999999999
166.00000000000006,-0.0120279999999999
166.2,-0.0131809999999998
166.40000000000003,-0.0123449999999998
166.59999999999997,-0.014898
166.8,-0.0131129999999997
167.00000000000006,-0.009732
167.2,-0.0058169999999999
167.40000000000003,-0.0063519999999996
167.59999999999997,-0.0061429999999997
167.8,-0.0079919999999997
168.00000000000006,-0.0098679999999999
168.2,-0.0122399999999998
168.40000000000003,-0.0119219999999997
168.59999999999997,-0.0119199999999999
168.8,-0.0112509999999996
169.00000000000006,-0.0095289999999996
169.2,-0.0070079999999999
169.40000000000003,-0.0064009999999998
169.59999999999997,-0.0064669999999997
169.8,-0.0072319999999996
170.00000000000006,-0.0072709999999998
170.2,-0.0086679999999996
170.40000000000003,-0.0093939999999999
170.59999999999997,-0.007743
170.8,-0.0061549999999996
171.00000000000006,-0.007171
171.2,-0.0068869999999998
171.40000000000003,-0.0035129999999998
171.59999999999997,-0.0030479999999997
171.8,-0.0018489999999999
172.00000000000006,-0.0030139999999998
172.2,-0.0058639999999998
172.40000000000003,-0.0103469999999998
172.59999999999997,-0.0122659999999998
172.8,-0.0142259999999998
173.00000000000006,-0.0156039999999997
173.2,-0.0154359999999997
173.40000000000003,-0.01417
173.59999999999997,-0.01282
173.8,-0.0132439999999998
174.00000000000006,-0.0139549999999997
174.2,-0.0131929999999997
174.40000000000003,-0.0122459999999997
174.59999999999997,-0.0112889999999996
174.8,-0.0097459999999998
175.00000000000006,-0.0063159999999999
175.2,-0.0068539999999996
175.40000000000003,-0.0086919999999999
175.59999999999997,-0.0125989999999998
175.8,-0.0151589999999997
176.00000000000006,-0.0171909999999999
176.2,-0.0170949999999998
176.40000000000003,-0.0175109999999998
176.59999999999997,-0.0135009999999997
176.8,-0.0099649999999997
177.00000000000006,-0.0084279999999998
177.2,-0.0096119999999997
177.40000000000003,-0.0096709999999999
177.59999999999997,-0.011241
177.8,-0.011921
178.00000000000006,-0.0133609999999997
178.2,-0.0116979999999999
178.40000000000003,-0.0104789999999996
178.59999999999997,-0.008941
178.8,-0.0091989999999997
179.00000000000006,-0.009894
179.2,-0.01146
179.40000000000003,-0.0137389999999997
179.59999999999997,-0.0158989999999996
179.8,-0.0184099999999998
180.00000000000006,-0.0177649999999998
180.2,-0.0168659999999998
180.40000000000003,-0.0151539999999998
180.6,-0.0142509999999997
180.8,-0.0097289999999996
181.00000000000009,-0.006596
181.2,-0.0048459999999996
181.40000000000003,-0.004391
181.6,-0.0053779999999998
181.8,-0.008394
182.00000000000009,-0.0099679999999997
182.2,-0.0119139999999999
182.40000000000003,-0.0134059999999998
182.6,-0.012172
182.8,-0.0102109999999999
183.00000000000009,-0.0095589999999998
183.2,-0.0078969999999998
183.40000000000003,-0.0070419999999997
183.6,-0.0083249999999996
183.8,-0.011911
184.00000000000009,-0.0155249999999997
184.2,-0.0187239999999997
184.40000000000003,-0.019104
184.6,-0.0205819999999996
184.8,-0.019311
185.00000000000009,-0.017894
185.2,-0.0146079999999999
185.40000000000003,-0.0115049999999996
185.6,-0.0069059999999998
185.8,-0.0063399999999997
186.00000000000009,-0.0055989999999996
186.2,-0.006955
186.40000000000003,-0.0088829999999999
186.6,-0.0122879999999998
186.8,-0.0135179999999999
187.00000000000009,-0.0141649999999997
187.2,-0.0132889999999998
187.40000000000003,-0.0136859999999998
187.6,-0.013128
187.8,-0.0101789999999999
188.00000000000009,-0.0084809999999997
188.2,-0.0098609999999998
188.40000000000003,-0.0119119999999997
188.6,-0.013776
188.8,-0.0172759999999998
189.00000000000009,-0.0187249999999998
189.2,-0.0181579999999996
189.40000000000003,-0.0162949999999999
189.6,-0.0147999999999997
189.8,-0.0122839999999997
190.00000000000009,-0.0095209999999998
190.2,-0.0087549999999998
190.40000000000003,-0.0084699999999999
190.6,-0.0085449999999998
190.8,-0.0081759999999997
191.00000000000009,-0.0074749999999998
191.2,-0.0056699999999998
191.40000000000003,-0.0046939999999997
191.6,-0.0045259999999998
191.8,-0.0056909999999996
192.00000000000009,-0.0083839999999999
192.2,-0.0087599999999996
192.40000000000003,-0.0082409999999999
192.6,-0.00679
192.8,-0.0048789999999998
193.00000000000009,-0.0030769999999997
193.2,-0.0045049999999999
193.40000000000003,-0.005986
193.6,-0.0066249999999996
193.8,-0.008296
194.00000000000009,-0.0101429999999997
194.2,-0.0101839999999997
194.40000000000003,-0.0107459999999997
194.6,-0.0119409999999997
194.8,-0.0112009999999997
195.00000000000009,-0.0080029999999999
195.2,-0.005859
195.40000000000003,-0.0021769999999996
195.6,-0.0011509999999996
195.8,-0.0034469999999999
196.00000000000009,-0.0086429999999997
196.2,-0.0119119999999997
196.40000000000003,-0.0146669999999997
196.6,-0.014882
196.8,-0.013271
197.00000000000009,-0.010313
197.2,-0.010955
197.40000000000003,-0.0133639999999997
197.6,-0.0162589999999998
197.8,-0.0186329999999999
198.00000000000009,-0.0207549999999998
198.2,-0.0181959999999996
198.40000000000003,-0.0156749999999998
198.6,-0.0130879999999997
198.8,-0.0126029999999999
199.00000000000009,-0.0129109999999998
199.2,-0.0152269999999998
199.40000000000003,-0.0168649999999996
199.6,-0.0191249999999998
199.8,-0.0193219999999998
200.00000000000009,-0.020712
200.2,-0.0218289999999998
200.40000000000003,-0.0235189999999998
200.6,-0.022278
200.8,-0.0201129999999998
201.00000000000009,-0.016299
201.2,-0.0132989999999999
201.40000000000003,-0.0111429999999996
201.6,-0.010243
201.8,-0.0124399999999997
202.00000000000009,-0.0147779999999997
202.2,-0.0164599999999999
202.40000000000003,-0.0170289999999999
202.6,-0.0197479999999998
202.8,-0.0214369999999997
203.00000000000009,-0.0227219999999999
203.2,-0.0223569999999999
203.40000000000003,-0.0197529999999996
203.6,-0.016575
203.8,-0.0141579999999996
204.00000000000009,-0.012458
204.2,-0.0106749999999999
204.40000000000003,-0.0129939999999999
204.6,-0.0129319999999997
204.8,-0.013265
205.00000000000009,-0.0123759999999997
205.2,-0.0142649999999999
205.40000000000003,-0.014329
205.6,-0.0156849999999999
205.8,-0.014882
206.00000000000009,-0.014307
206.2,-0.0131559999999999
206.40000000000003,-0.0122029999999999
206.6,-0.0129679999999998
206.8,-0.014148
207.00000000000009,-0.014764
207.2,-0.0145279999999998
207.40000000000003,-0.0146269999999999
207.6,-0.0144079999999999
207.8,-0.0145819999999998
208.00000000000009,-0.0156329999999997
208.2,-0.0177279999999999
208.40000000000003,-0.0187759999999999
208.6,-0.0177289999999996
208.8,-0.016553
209.00000000000009,-0.0168619999999997
209.2,-0.0166939999999997
209.40000000000003,-0.0141959999999996
209.6,-0.01241
209.8,-0.0114319999999996
210.00000000000009,-0.0110489999999998
210.2,-0.01133
210.40000000000003,-0.013983
210.6,-0.0155219999999998
210.8,-0.0183409999999999
211.00000000000009,-0.0190139999999998
211.2,-0.0181209999999998
211.40000000000003,-0.0181279999999999
211.6,-0.0200559999999998
211.8,-0.0188259999999997
212.00000000000009,-0.0159949999999997
212.2,-0.0146779999999999
212.40000000000003,-0.0127069999999998
212.6,-0.0099329999999997
212.8,-0.0080399999999998
213.00000000000009,-0.0087369999999999
213.2,-0.0096309999999997
213.40000000000003,-0.0108559999999999
213.6,-0.012296
213.8,-0.0137899999999997
214.00000000000009,-0.014542
214.2,-0.0159819999999997
214.40000000000003,-0.0175749999999998
214.6,-0.0192869999999998
214.8,-0.0199759999999997
215.00000000000009,-0.022367
215.2,-0.0225789999999999
215.40000000000003,-0.0219979999999999
215.6,-0.0216889999999998
215.8,-0.0221549999999997
216.00000000000009,-0.021141
216.2,-0.0209329999999998
216.40000000000003,-0.0215989999999997
216.6,-0.0208599999999998
216.8,-0.0196359999999997
217.00000000000009,-0.018081
217.2,-0.0178659999999997
217.40000000000003,-0.0165079999999999
217.6,-0.0152049999999999
217.8,-0.0159539999999998
218.00000000000009,-0.017948
218.2,-0.0181629999999999
218.40000000000003,-0.0194779999999998
218.6,-0.0192359999999998
218.8,-0.0168539999999999
219.00000000000009,-0.0142799999999998
219.2,-0.0121389999999999
219.40000000000003,-0.0102989999999998
219.6,-0.0107539999999999
219.8,-0.0143519999999996
220.00000000000009,-0.0169459999999999
220.2,-0.020073
220.40000000000003,-0.0207739999999998
220.6,-0.0206459999999997
220.8,-0.0176479999999998
221.00000000000009,-0.0158629999999999
221.2,-0.0147059999999998
221.40000000000003,-0.0138819999999997
221.6,-0.0143089999999999
221.8,-0.0155599999999997
222.00000000000009,-0.016153
222.2,-0.0153419999999999
222.40000000000003,-0.0168149999999998
222.6,-0.0156559999999998
222.8,-0.0153339999999997
223.00000000000009,-0.0159519999999999
223.2,-0.0183539999999999
223.40000000000003,-0.0195239999999996
223.6,-0.020731
223.8,-0.0222099999999998
224.00000000000009,-0.022008
224.2,-0.0203439999999996
224.40000000000003,-0.018294
224.6,-0.0174209999999996
224.8,-0.0156779999999998
225.00000000000009,-0.0131529999999999
225.2,-0.0111979999999998
225.40000000000003,-0.0091239999999999
225.6,-0.0090469999999998
225.8,-0.0078499999999999
226.00000000000009,-0.0079549999999999
226.2,-0.0060069999999998
226.40000000000003,-0.0075599999999997
226.6,-0.0081729999999997
226.8,-0.0090779999999996
227.00000000000009,-0.009846
227.2,-0.0134669999999998
227.40000000000003,-0.0146979999999996
227.6,-0.016137
227.8,-0.0177779999999998
228.00000000000009,-0.0190539999999996
228.2,-0.019489
228.40000000000003,-0.0187819999999998
228.6,-0.017039
228.8,-0.0160009999999997
229.00000000000009,-0.0149719999999997
229.2,-0.0107529999999997
229.40000000000003,-0.0080499999999998
229.6,-0.0069299999999996
229.8,-0.0065379999999999
230.00000000000009,-0.0055449999999996
230.2,-0.0084119999999998
230.40000000000003,-0.0103299999999997
230.6,-0.0101469999999999
230.8,-0.009881
231.00000000000009,-0.0129259999999997
231.2,-0.0135229999999997
231.40000000000003,-0.0135649999999998
231.6,-0.014704
231.8,-0.0151049999999997
232.00000000000009,-0.0136739999999999
232.2,-0.0127099999999997
232.40000000000003,-0.0125629999999996
232.6,-0.012429
232.8,-0.0126339999999998
233.00000000000009,-0.0129349999999996
233.2,-0.0136689999999997
233.40000000000003,-0.0158199999999997
233.6,-0.017541
233.8,-0.0175079999999998
234.00000000000009,-0.014952
234.2,-0.0124709999999996
234.40000000000003,-0.0071159999999999
234.6,-0.0032529999999999
234.8,-0.0026589999999999
235.00000000000009,-0.0039319999999998
235.2,-0.0069639999999999
235.40000000000003,-0.0106489999999999
235.6,-0.0139839999999997
235.8,-0.0141299999999997
236.00000000000009,-0.0163199999999998
236.2,-0.0172979999999998
236.40000000000003,-0.0177089999999999
236.6,-0.0174289999999999
236.8,-0.0170989999999999
237.00000000000009,-0.0147249999999998
237.2,-0.011622
237.40000000000003,-0.0099209999999998
237.6,-0.008664
237.8,-0.0086469999999998
238.00000000000009,-0.010634
238.2,-0.0130119999999998
238.40000000000003,-0.0141359999999997
238.6,-0.014971
238.8,-0.0159159999999998
239.00000000000009,-0.0148009999999998
239.2,-0.0123899999999999
239.40000000000003,-0.0135639999999996
239.6,-0.0155919999999998
239.8,-0.0158259999999996
240.00000000000009,-0.0159169999999999
240.2,-0.0186069999999998
240.40000000000003,-0.0187689999999998
240.6,-0.018091
240.8,-0.0200249999999999
241.00000000000009,-0.0214729999999998
241.2,-0.018834
241.40000000000003,-0.0180699999999998
241.6,-0.015222
241.8,-0.012912
242.00000000000009,-0.0128809999999996
242.2,-0.0163079999999999
242.40000000000003,-0.015743
242.6,-0.0163039999999998
242.8,-0.0163789999999997
243.00000000000009,-0.017433
243.2,-0.0175929999999997
243.40000000000003,-0.018831
243.6,-0.0196659999999999
243.8,-0.0195579999999999
244.00000000000009,-0.0192549999999998
244.2,-0.0200999999999997
244.40000000000003,-0.0227209999999997
244.6,-0.0244789999999999
244.8,-0.0255239999999998
245.00000000000009,-0.0226299999999999
245.2,-0.0176419999999999
245.40000000000003,-0.0133669999999996
245.6,-0.0130969999999996
245.8,-0.013268
246.00000000000009,-0.0140549999999999
246.2,-0.0156
246.40000000000003,-0.0149369999999997
246.6,-0.0109659999999998
246.8,-0.0090889999999999
247.00000000000009,-0.0077639999999998
247.2,-0.0071039999999999
247.40000000000003,-0.0070619999999999
247.6,-0.0098669999999998
247.8,-0.0105369999999997
248.00000000000009,-0.0126759999999999
248.2,-0.015028
248.40000000000003,-0.0180419999999998
248.6,-0.0198429999999998
248.8,-0.0212639999999999
249.00000000000009,-0.020458
249.2,-0.017957
249.40000000000003,-0.0152259999999997
249.6,-0.01187
249.8,-0.011794
250.00000000000009,-0.013379
250.2,-0.015854
250.40000000000003,-0.0173429999999998
250.6,-0.0204089999999999
250.8,-0.0209509999999997
251.00000000000009,-0.02088
251.2,-0.020038
251.40000000000003,-0.0202849999999998
251.6,-0.0195699999999998
251.8,-0.0165229999999998
252.00000000000009,-0.0138899999999999
252.2,-0.0134739999999999
252.40000000000003,-0.0124459999999997
252.6,-0.0124749999999997
252.8,-0.015508
253.00000000000009,-0.0191819999999998
253.2,-0.0189429999999997
253.40000000000003,-0.018736
253.6,-0.0153959999999999
253.8,-0.0117249999999997
254.00000000000009,-0.0068779999999999
254.2,-0.0065339999999998
254.40000000000003,-0.0063839999999997
254.6,-0.0082629999999999
254.8,-0.0098659999999997
255.00000000000009,-0.0115279999999997
255.2,-0.0119169999999999
255.40000000000003,-0.0131589999999999
255.6,-0.014599
255.8,-0.0148949999999996
256.00000000000006,-0.0153449999999999
256.2,-0.0149119999999998
256.40000000000003,-0.0139749999999998
256.6,-0.0123549999999998
256.8,-0.0114069999999997
257.00000000000006,-0.0119919999999997
257.2,-0.0125389999999998
257.40000000000003,-0.0121709999999999
257.6,-0.0127169999999998
257.8,-0.0130409999999998
258.00000000000006,-0.0122329999999997
258.2,-0.011587
258.40000000000003,-0.0112019999999999
258.6,-0.0094939999999996
258.8,-0.0101039999999996
259.00000000000006,-0.0133679999999998
259.2,-0.015921
259.40000000000003,-0.0176979999999997
259.6,-0.0199339999999996
259.8,-0.0195009999999999
260.00000000000006,-0.0179629999999999
260.2,-0.0185569999999999
260.40000000000003,-0.0202309999999998
260.6,-0.0223789999999999
260.8,-0.022736
261.00000000000006,-0.0222449999999998
261.2,-0.0212969999999996
261.40000000000003,-0.0211859999999997
261.6,-0.0211809999999998
261.8,-0.0241609999999998
262.00000000000006,-0.0260339999999996
262.2,-0.0262069999999998
262.40000000000003,-0.0250099999999999
262.6,-0.0246109999999997
262.8,-0.0231099999999999
263.00000000000006,-0.0216279999999997
263.2,-0.0221019999999998
263.40000000000003,-0.0247189999999997
263.6,-0.0252659999999997
263.8,-0.0253009999999997
264.00000000000006,-0.0237949999999997
264.2,-0.0202019999999998
264.40000000000003,-0.0169779999999999
264.6,-0.0162369999999998
264.8,-0.0171909999999999
265.00000000000006,-0.0196389999999997
265.2,-0.0230989999999997
265.40000000000003,-0.0236259999999997
265.6,-0.0224269999999999
265.8,-0.0211049999999999
266.00000000000006,-0.0191309999999997
266.2,-0.018628
266.40000000000003,-0.0183919999999999
266.6,-0.0210609999999999
266.8,-0.0217939999999998
267.00000000000006,-0.0231849999999997
267.2,-0.0239199999999999
267.40000000000003,-0.0241109999999999
267.6,-0.02041
267.8,-0.0159359999999999
268.00000000000006,-0.0144349999999997
268.2,-0.012995
268.40000000000003,-0.0128659999999998
268.6,-0.0134719999999997
268.8,-0.0141679999999997
269.00000000000006,-0.0122009999999996
269.2,-0.0104079999999999
269.40000000000003,-0.0107839999999996
269.6,-0.0127129999999997
269.8,-0.0174789999999998
270.00000000000006,-0.021713
270.2,-0.0259609999999996
270.40000000000003,-0.0278469999999999
270.6,-0.0275739999999999
270.8,-0.0253539999999996
271.00000000000006,-0.0223849999999998
271.2,-0.0187289999999999
271.40000000000003,-0.016664
271.6,-0.015152
271.8,-0.0156429999999998
272.00000000000006,-0.018879
272.2,-0.0223749999999998
272.40000000000003,-0.022621
272.6,-0.0213749999999999
272.8,-0.0190379999999996
273.00000000000006,-0.0154449999999997
273.2,-0.0113819999999997
273.40000000000003,-0.0105599999999999
273.6,-0.0120139999999997
273.8,-0.014456
274.00000000000006,-0.0182309999999996
274.2,-0.0214149999999997
274.40000000000003,-0.020601
274.6,-0.0189559999999997
274.8,-0.0182329999999999
275.00000000000006,-0.017522
275.2,-0.0156799999999996
275.40000000000003,-0.016531
275.6,-0.0171169999999998
275.8,-0.0166629999999998
276.00000000000006,-0.0147239999999997
276.2,-0.0141199999999996
276.40000000000003,-0.0138729999999998
276.6,-0.0149909999999997
276.8,-0.0171149999999999
277.00000000000006,-0.0174049999999996
277.2,-0.0177359999999997
277.40000000000003,-0.0165259999999998
277.6,-0.0175119999999999
277.8,-0.0169159999999997
278.00000000000006,-0.0191629999999998
278.2,-0.0191719999999997
278.40000000000003,-0.0209229999999998
278.6,-0.0192169999999998
278.8,-0.017878
279.00000000000006,-0.0160719999999998
279.2,-0.0184729999999997
279.40000000000003,-0.0208589999999997
279.6,-0.0240779999999998
279.8,-0.026253
280.00000000000006,-0.0263819999999999
280.2,-0.0235689999999997
280.40000000000003,-0.019387
280.6,-0.0139279999999999
280.8,-0.0107279999999998
281.00000000000006,-0.010593
281.2,-0.0130029999999998
281.40000000000003,-0.0155719999999996
281.6,-0.0192129999999997
281.8,-0.020512
282.00000000000006,-0.0216719999999996
282.2,-0.022024
282.40000000000003,-0.0223889999999999
282.6,-0.0231909999999997
282.8,-0.024099
283.00000000000006,-0.0244979999999999
283.2,-0.0243849999999996
283.40000000000003,-0.0249839999999998
283.6,-0.0246819999999998
283.8,-0.0228589999999999
284.00000000000006,-0.0201169999999999
284.2,-0.0166469999999998
284.40000000000003,-0.014831
284.6,-0.0159669999999998
284.8,-0.0195319999999998
285.00000000000006,-0.0226949999999996
285.2,-0.0241819999999997
285.40000000000003,-0.0230319999999997
285.6,-0.019012
285.8,-0.0161999999999999
286.00000000000006,-0.0138229999999999
286.2,-0.0139939999999998
286.40000000000003,-0.0152309999999999
286.6,-0.0175649999999998
286.8,-0.0205009999999998
287.00000000000006,-0.023895
287.2,-0.025843
287.40000000000003,-0.0255749999999999
287.6,-0.023409
287.8,-0.0200979999999999
288.00000000000006,-0.018539
288.2,-0.019883
288.40000000000003,-0.0214719999999997
288.6,-0.022421
288.8,-0.0214819999999997
289.00000000000006,-0.0197549999999999
289.2,-0.0168179999999997
289.40000000000003,-0.0141929999999996
289.6,-0.0151639999999999
289.8,-0.0179869999999997
290.00000000000006,-0.0178549999999999
290.2,-0.018612
290.40000000000003,-0.0211919999999996
290.6,-0.0207709999999998
290.8,-0.0186649999999999
291.00000000000006,-0.0187529999999997
291.2,-0.0191619999999996
291.40000000000003,-0.018561
291.6,-0.0194799999999997
291.8,-0.0213259999999997
292.00000000000006,-0.0218639999999998
292.2,-0.0204909999999998
292.40000000000003,-0.0196989999999996
292.6,-0.0193959999999999
292.8,-0.0192499999999999
293.00000000000006,-0.0204909999999998
293.2,-0.0214949999999998
293.40000000000003,-0.022723
293.6,-0.0219659999999999
293.8,-0.0214779999999996
294.00000000000006,-0.0199519999999999
294.2,-0.01973
294.40000000000003,-0.0199169999999999
294.6,-0.0219089999999999
294.8,-0.0236719999999999
295.00000000000006,-0.023562
295.2,-0.0229109999999996
295.40000000000003,-0.0220679999999999
295.6,-0.0218929999999999
295.8,-0.0211709999999998
296.00000000000006,-0.0232999999999998
296.2,-0.0241389999999999
296.40000000000003,-0.0259439999999999
296.6,-0.0252339999999997
296.8,-0.0240029999999999
297.00000000000006,-0.0207899999999998
297.2,-0.0182189999999997
297.40000000000003,-0.0139959999999996
297.6,-0.0130889999999999
297.8,-0.0131689999999999
297.99999999999994,-0.02096
298.1999999999999,-0.025268
298.3999999999999,-0.0250290000000001
298.59999999999985,-0.0248240000000001
298.7999999999999,-0.0239800000000003
298.99999999999983,-0.0209070000000002
299.1999999999999,-0.0224940000000002
299.3999999999999,-0.0232470000000002
299.59999999999985,-0.0218380000000002
299.7999999999999,-0.0211960000000002
299.99999999999983,-0.0222370000000002
300.1999999999999,-0.0217660000000001
300.3999999999999,-0.0225790000000003
300.59999999999985,-0.0240180000000003
300.7999999999999,-0.0238130000000003
300.99999999999983,-0.0218500000000001
301.1999999999999,-0.0199980000000001
301.3999999999999,-0.0183910000000002
301.59999999999985,-0.0207800000000002
301.7999999999999,-0.0255310000000001
301.99999999999983,-0.0315130000000003
302.1999999999999,-0.0351700000000003
302.3999999999999,-0.0372480000000001
302.59999999999985,-0.0356510000000003
302.7999999999999,-0.0318700000000002
302.99999999999983,-0.0275630000000002
303.1999999999999,-0.0258180000000003
303.3999999999999,-0.0251020000000001
303.59999999999985,-0.0262350000000002
303.7999999999999,-0.0297240000000003
303.99999999999983,-0.0323840000000001
304.1999999999999,-0.0339880000000003
304.3999999999999,-0.0342260000000003
304.59999999999985,-0.0343170000000001
304.7999999999999,-0.0324160000000002
304.99999999999983,-0.0289430000000001
305.1999999999999,-0.0269700000000001
305.3999999999999,-0.0257110000000002
305.59999999999985,-0.0248940000000001
305.7999999999999,-0.0243920000000001
305.99999999999983,-0.0263820000000003
306.1999999999999,-0.0281310000000003
306.3999999999999,-0.0285750000000002
306.59999999999985,-0.0286030000000001
306.7999999999999,-0.0277290000000003
306.99999999999983,-0.0271300000000003
307.1999999999999,-0.0276140000000002
307.3999999999999,-0.0292280000000002
307.59999999999985,-0.0318430000000002
307.7999999999999,-0.0341530000000003
307.99999999999983,-0.0327420000000002
308.1999999999999,-0.0305050000000002
308.3999999999999,-0.0291540000000003
308.59999999999985,-0.0265830000000002
308.7999999999999,-0.0237480000000003
308.99999999999983,-0.0247970000000001
309.1999999999999,-0.0257070000000001
309.3999999999999,-0.0277160000000002
309.59999999999985,-0.0304650000000001
309.7999999999999,-0.0343850000000003
309.99999999999983,-0.0359660000000001
310.1999999999999,-0.0365190000000001
310.3999999999999,-0.0336310000000001
310.59999999999985,-0.0319500000000003
310.7999999999999,-0.0282480000000002
310.99999999999983,-0.0264190000000001
311.1999999999999,-0.0267150000000002
311.3999999999999,-0.0285320000000002
311.59999999999985,-0.0284800000000002
311.7999999999999,-0.0301790000000001
311.99999999999983,-0.0310900000000002
312.1999999999999,-0.0288340000000002
312.3999999999999,-0.0261220000000002
312.59999999999985,-0.0231900000000002
312.7999999999999,-0.0224470000000003
312.99999999999983,-0.0230650000000003
313.1999999999999,-0.0256880000000001
313.3999999999999,-0.0285050000000002
313.59999999999985,-0.0291820000000002
313.7999999999999,-0.0269920000000003
313.99999999999983,-0.0239050000000002
314.1999999999999,-0.0198670000000003
314.3999999999999,-0.0163940000000002
314.59999999999985,-0.0167550000000002
314.7999999999999,-0.0190630000000002
314.99999999999983,-0.0227000000000001
315.1999999999999,-0.0261830000000002
315.3999999999999,-0.0288790000000003
315.59999999999985,-0.0271890000000003
315.7999999999999,-0.0256350000000002
315.99999999999983,-0.0223450000000002
316.1999999999999,-0.0209730000000003
316.3999999999999,-0.0204760000000001
316.59999999999985,-0.0229790000000003
316.7999999999999,-0.0248770000000002
316.99999999999983,-0.0283890000000002
317.1999999999999,-0.0304030000000001
317.3999999999999,-0.0316980000000002
317.59999999999985,-0.0314560000000001
317.7999999999999,-0.0312760000000003
317.99999999999983,-0.0300200000000001
318.1999999999999,-0.0293740000000002
318.3999999999999,-0.0292510000000003
318.59999999999985,-0.0284500000000003
318.7999999999999,-0.0284160000000002
318.99999999999983,-0.0294670000000003
319.1999999999999,-0.0317220000000002
319.3999999999999,-0.0325720000000002
319.59999999999985,-0.0357630000000002
319.7999999999999,-0.0369730000000003
319.99999999999983,-0.0370840000000003
320.1999999999999,-0.0337030000000002
320.3999999999999,-0.0313330000000002
320.59999999999985,-0.0287550000000003
320.7999999999999,-0.0279390000000001
320.99999999999983,-0.0256290000000003
321.1999999999999,-0.0253750000000001
321.3999999999999,-0.0251250000000002
321.59999999999985,-0.0270360000000002
321.7999999999999,-0.0266400000000002
321.99999999999983,-0.0276020000000003
322.1999999999999,-0.0288230000000002
322.3999999999999,-0.0303750000000002
322.59999999999985,-0.0287120000000002
322.7999999999999,-0.0276750000000003
322.99999999999983,-0.0261690000000003
323.1999999999999,-0.0246450000000002
323.3999999999999,-0.0223190000000002
323.59999999999985,-0.0212760000000002
323.7999999999999,-0.0224350000000002
323.99999999999983,-0.0241810000000002
324.1999999999999,-0.0256300000000002
324.3999999999999,-0.0274990000000001
324.59999999999985,-0.0285950000000001
324.7999999999999,-0.0266320000000002
324.99999999999983,-0.0243880000000003
325.1999999999999,-0.0220370000000003
325.3999999999999,-0.0211260000000002
325.59999999999985,-0.0196310000000001
325.7999999999999,-0.0185160000000002
325.99999999999983,-0.0190520000000002
326.1999999999999,-0.0217780000000002
326.3999999999999,-0.0226180000000002
326.59999999999985,-0.0241570000000002
326.7999999999999,-0.0263350000000002
326.99999999999983,-0.0260300000000002
327.1999999999999,-0.0251620000000003
327.3999999999999,-0.0248260000000002
327.59999999999985,-0.0242970000000002
327.7999999999999,-0.0253100000000001
327.99999999999983,-0.0256480000000003
328.1999999999999,-0.0230110000000003
328.3999999999999,-0.0220700000000002
328.59999999999985,-0.0234490000000002
328.7999999999999,-0.0227990000000002
328.99999999999983,-0.0231720000000001
329.1999999999999,-0.0243180000000002
329.3999999999999,-0.0255240000000003
329.59999999999985,-0.0250380000000003
329.7999999999999,-0.0248640000000002
329.99999999999983,-0.0255480000000003
330.1999999999999,-0.0263170000000001
330.3999999999999,-0.0265950000000001
330.59999999999985,-0.0262700000000002
330.7999999999999,-0.0255680000000002
330.99999999999983,-0.0240210000000002
331.1999999999999,-0.0233160000000003
331.3999999999999,-0.0224410000000001
331.59999999999985,-0.0242500000000003
331.7999999999999,-0.0265980000000003
331.99999999999983,-0.0312840000000003
332.1999999999999,-0.0347850000000002
332.3999999999999,-0.0366390000000003
332.59999999999985,-0.0356580000000001
332.7999999999999,-0.0342430000000002
332.99999999999983,-0.0310230000000002
333.1999999999999,-0.0259690000000003
333.3999999999999,-0.0215680000000002
333.59999999999985,-0.0189930000000002
333.7999999999999,-0.0179360000000001
333.99999999999983,-0.0197550000000001
334.1999999999999,-0.0232120000000002
334.3999999999999,-0.0277550000000001
334.59999999999985,-0.0304120000000003
334.7999999999999,-0.0314040000000002
334.99999999999983,-0.0308210000000002
335.1999999999999,-0.0312650000000003
335.3999999999999,-0.0299310000000001
335.59999999999985,-0.0272850000000002
335.7999999999999,-0.0265950000000001
335.99999999999983,-0.0260410000000002
336.1999999999999,-0.0265140000000001
336.3999999999999,-0.0256170000000002
336.59999999999985,-0.0264150000000003
336.7999999999999,-0.0256790000000002
336.99999999999983,-0.0250580000000002
337.1999999999999,-0.0224250000000003
337.3999999999999,-0.0235220000000002
337.59999999999985,-0.0229900000000002
337.7999999999999,-0.0230300000000003
337.99999999999983,-0.0223870000000001
338.1999999999999,-0.0222570000000001
338.3999999999999,-0.0222020000000002
338.59999999999985,-0.0236750000000003
338.7999999999999,-0.0249940000000001
338.99999999999983,-0.0273070000000001
339.1999999999999,-0.0295070000000001
339.3999999999999,-0.0284490000000001
339.59999999999985,-0.0281090000000001
339.7999999999999,-0.0268550000000002
339.99999999999983,-0.0245010000000003
340.1999999999999,-0.0221020000000002
340.3999999999999,-0.0223880000000002
340.59999999999985,-0.0211500000000002
340.7999999999999,-0.0201350000000002
340.99999999999983,-0.0188200000000002
341.1999999999999,-0.0194270000000003
341.3999999999999,-0.0187260000000002
341.59999999999985,-0.0202270000000002
341.7999999999999,-0.0224840000000001
341.99999999999983,-0.0265030000000001
342.1999999999999,-0.0273990000000001
342.3999999999999,-0.0272090000000002
342.59999999999985,-0.0273680000000002
342.7999999999999,-0.0297730000000002
342.99999999999983,-0.0298930000000001
343.1999999999999,-0.0297970000000002
343.3999999999999,-0.0300300000000002
343.59999999999985,-0.0294470000000002
343.7999999999999,-0.0294740000000002
343.99999999999983,-0.0284610000000002
344.1999999999999,-0.0259170000000001
344.3999999999999,-0.0228590000000001
344.59999999999985,-0.0219200000000001
344.7999999999999,-0.0189870000000003
344.99999999999983,-0.0155140000000002
345.1999999999999,-0.0138240000000002
345.3999999999999,-0.0165150000000002
345.59999999999985,-0.0186950000000003
345.7999999999999,-0.0211560000000001
345.99999999999983,-0.0258250000000002
346.1999999999999,-0.0313800000000001
346.3999999999999,-0.0324410000000001
346.59999999999985,-0.0283560000000002
346.7999999999999,-0.0247810000000001
346.99999999999983,-0.0224220000000001
347.1999999999999,-0.0208580000000002
347.3999999999999,-0.0195900000000002
347.59999999999985,-0.0227550000000003
347.7999999999999,-0.0258830000000003
347.99999999999983,-0.0250360000000002
348.1999999999999,-0.0238420000000003
348.3999999999999,-0.0241090000000001
348.59999999999985,-0.0254040000000002
348.7999999999999,-0.0266700000000001
348.99999999999983,-0.0307490000000003
349.1999999999999,-0.0341180000000003
349.3999999999999,-0.0359420000000003
349.59999999999985,-0.0361030000000002
349.7999999999999,-0.0343980000000001
349.99999999999983,-0.0316650000000002
350.1999999999999,-0.0298210000000003
350.3999999999999,-0.0296560000000003
350.59999999999985,-0.0279760000000002
350.7999999999999,-0.0267530000000002
350.99999999999983,-0.0267220000000003
351.1999999999999,-0.0250740000000002
351.3999999999999,-0.0223600000000001
351.59999999999985,-0.0224270000000001
351.7999999999999,-0.0244510000000002
351.99999999999983,-0.0238670000000003
352.1999999999999,-0.0257100000000003
352.3999999999999,-0.0273020000000001
352.59999999999985,-0.0289300000000003
352.7999999999999,-0.0284150000000003
352.99999999999983,-0.0306150000000002
353.1999999999999,-0.0314300000000002
353.3999999999999,-0.0336120000000002
353.59999999999985,-0.0330450000000002
353.7999999999999,-0.0309820000000002
353.99999999999983,-0.0293320000000003
354.1999999999999,-0.0272540000000003
354.3999999999999,-0.0262730000000002
354.59999999999985,-0.0271600000000002
354.7999999999999,-0.0313000000000003
354.99999999999983,-0.0351140000000003
355.1999999999999,-0.0394260000000001
355.3999999999999,-0.0396890000000003
355.59999999999985,-0.0400390000000001
355.7999999999999,-0.0381210000000002
355.99999999999983,-0.0336980000000002
356.1999999999999,-0.0291490000000003
356.3999999999999,-0.0288000000000001
356.59999999999985,-0.0281450000000003
356.7999999999999,-0.0293210000000001
356.99999999999983,-0.0307590000000002
357.1999999999999,-0.0325160000000002
357.3999999999999,-0.0334020000000001
357.59999999999985,-0.0338710000000002
357.7999999999999,-0.0327170000000003
357.99999999999983,-0.0320710000000001
358.1999999999999,-0.0292580000000002
358.3999999999999,-0.0264910000000002
358.59999999999985,-0.0242480000000002
358.7999999999999,-0.0226500000000002
358.99999999999983,-0.0229530000000002
359.1999999999999,-0.0252330000000002
359.3999999999999,-0.0263600000000001
359.59999999999985,-0.0268080000000001
359.7999999999999,-0.0276280000000002
359.99999999999983,-0.0290530000000002
360.1999999999999,-0.0306390000000003
360.3999999999999,-0.0319790000000002
360.5999999999999,-0.0305950000000001
360.7999999999999,-0.0293800000000001
360.99999999999983,-0.0271700000000003
361.1999999999999,-0.0260710000000001
361.3999999999999,-0.0249670000000001
361.5999999999999,-0.0279080000000002
361.7999999999999,-0.0316750000000003
361.99999999999983,-0.0333070000000002
362.1999999999999,-0.0316100000000003
362.3999999999999,-0.0298850000000001
362.5999999999999,-0.0278310000000001
362.7999999999999,-0.0260110000000002
362.99999999999983,-0.0253290000000001
363.1999999999999,-0.0272560000000001
363.3999999999999,-0.0287430000000001
363.5999999999999,-0.0279530000000003
363.7999999999999,-0.0237190000000002
363.99999999999983,-0.0213650000000003
364.1999999999999,-0.0198300000000002
364.3999999999999,-0.0196760000000002
364.5999999999999,-0.0204780000000002
364.7999999999999,-0.0231810000000003
364.99999999999983,-0.0251740000000002
365.1999999999999,-0.0254020000000001
365.3999999999999,-0.0242620000000002
365.5999999999999,-0.0259630000000001
365.7999999999999,-0.0276260000000001
365.99999999999983,-0.0278540000000002
366.1999999999999,-0.0284390000000003
366.3999999999999,-0.0303530000000002
366.5999999999999,-0.0297750000000003
366.7999999999999,-0.0278240000000002
366.99999999999983,-0.0269870000000003
367.1999999999999,-0.0266770000000002
367.3999999999999,-0.0269890000000001
367.5999999999999,-0.0274980000000002
367.7999999999999,-0.0286470000000003
367.99999999999983,-0.0297800000000003
368.1999999999999,-0.0322530000000003
368.3999999999999,-0.0316320000000003
368.5999999999999,-0.0309820000000002
368.7999999999999,-0.0298520000000002
368.99999999999983,-0.0291620000000003
369.1999999999999,-0.0263220000000001
369.3999999999999,-0.0273140000000002
369.5999999999999,-0.0279290000000003
369.7999999999999,-0.0299580000000001
369.99999999999983,-0.0289810000000003
370.1999999999999,-0.0284080000000002
370.3999999999999,-0.0256040000000001
370.5999999999999,-0.0231400000000001
370.7999999999999,-0.0224420000000002
370.99999999999983,-0.0241650000000002
371.1999999999999,-0.0258100000000003
371.3999999999999,-0.0283810000000002
371.5999999999999,-0.0294310000000002
371.7999999999999,-0.0279450000000003
371.99999999999983,-0.0254070000000001
372.1999999999999,-0.0237070000000003
372.3999999999999,-0.0233200000000002
372.5999999999999,-0.0250790000000002
372.7999999999999,-0.0285100000000002
372.99999999999983,-0.0324060000000001
373.1999999999999,-0.0340960000000003
373.3999999999999,-0.0339640000000003
373.5999999999999,-0.0330390000000002
373.7999999999999,-0.0318390000000001
373.99999999999983,-0.0316690000000001
374.1999999999999,-0.0332080000000003
374.3999999999999,-0.0332700000000003
374.5999999999999,-0.0319960000000003
374.7999999999999,-0.0316620000000003
374.99999999999983,-0.0301480000000002
375.1999999999999,-0.0292150000000002
375.3999999999999,-0.0282400000000002
375.5999999999999,-0.0280550000000001
375.7999999999999,-0.0270860000000001
375.99999999999983,-0.0286720000000002
376.1999999999999,-0.0276130000000003
376.3999999999999,-0.0283370000000002
376.5999999999999,-0.0289770000000002
376.7999999999999,-0.0291570000000003
376.99999999999983,-0.0270030000000003
377.1999999999999,-0.0276390000000001
377.3999999999999,-0.0288060000000003
377.5999999999999,-0.0302360000000001
377.7999999999999,-0.0318800000000003
377.99999999999983,-0.0304600000000001
378.1999999999999,-0.0281830000000002
378.3999999999999,-0.0279410000000002
378.5999999999999,-0.0291350000000003
378.7999999999999,-0.0289790000000003
378.99999999999983,-0.0305200000000003
379.1999999999999,-0.0323660000000003
379.3999999999999,-0.0320380000000002
379.5999999999999,-0.0294850000000002
379.7999999999999,-0.0278270000000002
379.99999999999983,-0.0270880000000002
380.1999999999999,-0.0272670000000001
380.3999999999999,-0.0264570000000001
380.5999999999999,-0.0275130000000003
380.7999999999999,-0.0292030000000003
380.99999999999983,-0.0313160000000003
381.1999999999999,-0.0323720000000002
381.3999999999999,-0.0319460000000002
381.5999999999999,-0.0293580000000002
381.7999999999999,-0.0273120000000002
381.99999999999983,-0.0259430000000002
382.1999999999999,-0.0252810000000003
382.3999999999999,-0.0255980000000002
382.5999999999999,-0.0279380000000002
382.7999999999999,-0.0285220000000001
382.99999999999983,-0.0298020000000003
383.1999999999999,-0.0314170000000002
383.3999999999999,-0.0344730000000002
383.5999999999999,-0.0360590000000002
383.7999999999999,-0.0370860000000001
383.99999999999983,-0.0353120000000002
384.1999999999999,-0.0315350000000003
384.3999999999999,-0.0270960000000002
384.5999999999999,-0.0240560000000003
384.7999999999999,-0.0241780000000002
384.99999999999983,-0.0261570000000002
385.1999999999999,-0.0288400000000002
385.3999999999999,-0.0306900000000003
385.5999999999999,-0.0316560000000003
385.7999999999999,-0.0306980000000003
385.99999999999983,-0.0290810000000003
386.1999999999999,-0.0287870000000003
386.3999999999999,-0.0301190000000002
386.5999999999999,-0.0298740000000001
386.7999999999999,-0.0307410000000003
386.99999999999983,-0.0307240000000001
387.1999999999999,-0.0303910000000002
387.3999999999999,-0.0284030000000001
387.5999999999999,-0.0273340000000001
387.7999999999999,-0.0232200000000002
387.99999999999983,-0.0211250000000002
388.1999999999999,-0.0184940000000002
388.3999999999999,-0.0190850000000002
388.5999999999999,-0.0216050000000003
388.7999999999999,-0.0263890000000002
388.99999999999983,-0.0288880000000002
389.1999999999999,-0.0297880000000001
389.3999999999999,-0.0282560000000002
389.5999999999999,-0.0272540000000003
389.7999999999999,-0.0269860000000001
389.99999999999983,-0.0305740000000003
390.1999999999999,-0.0334450000000001
390.3999999999999,-0.0344750000000002
390.5999999999999,-0.0313550000000002
390.7999999999999,-0.0274830000000001
390.99999999999983,-0.0217710000000002
391.1999999999999,-0.0196670000000003
391.3999999999999,-0.0203400000000002
391.5999999999999,-0.0260900000000001
391.7999999999999,-0.0306970000000001
391.99999999999983,-0.0331670000000001
392.1999999999999,-0.0343260000000003
392.3999999999999,-0.0351710000000002
392.5999999999999,-0.0331700000000003
392.7999999999999,-0.0323090000000003
392.99999999999983,-0.0332140000000003
393.1999999999999,-0.0341740000000001
393.3999999999999,-0.0331520000000002
393.5999999999999,-0.0317450000000003
393.7999999999999,-0.0285110000000001
393.99999999999983,-0.0251080000000003
394.1999999999999,-0.0224800000000002
394.3999999999999,-0.0217870000000002
394.5999999999999,-0.0229290000000002
394.7999999999999,-0.0256880000000001
394.99999999999983,-0.0300340000000003
395.1999999999999,-0.0337620000000002
395.3999999999999,-0.0363550000000003
395.5999999999999,-0.0387320000000002
395.7999999999999,-0.0393680000000002
395.99999999999983,-0.0376930000000002
396.1999999999999,-0.0345700000000002
396.3999999999999,-0.0302630000000001
396.5999999999999,-0.0264850000000003
396.7999999999999,-0.0267540000000001
396.99999999999983,-0.0275810000000003
397.1999999999999,-0.0276980000000002
397.3999999999999,-0.0291270000000003
397.5999999999999,-0.0298110000000002
397.7999999999999,-0.0283740000000003
397.99999999999983,-0.0277070000000001
398.1999999999999,-0.0286120000000003
398.3999999999999,-0.0284020000000002
398.5999999999999,-0.0269830000000002
398.7999999999999,-0.0259770000000003
398.99999999999983,-0.0252000000000003
399.1999999999999,-0.0236050000000003
399.3999999999999,-0.0248830000000002
399.5999999999999,-0.0283680000000001
399.7999999999999,-0.0310320000000001
399.99999999999983,-0.0314280000000002
400.1999999999999,-0.0314700000000003
400.3999999999999,-0.0286940000000002
400.5999999999999,-0.0260110000000002
400.7999999999999,-0.0236970000000003
400.99999999999983,-0.0224480000000002
401.1999999999999,-0.0221020000000002
401.3999999999999,-0.0239380000000002
401.5999999999999,-0.0261340000000003
401.7999999999999,-0.0284600000000001
401.99999999999983,-0.0311870000000002
402.1999999999999,-0.0336530000000001
402.3999999999999,-0.0331660000000002
402.5999999999999,-0.0317250000000002
402.7999999999999,-0.0295450000000001
402.99999999999983,-0.0276000000000002
403.1999999999999,-0.0263400000000002
403.3999999999999,-0.0281150000000003
403.5999999999999,-0.0293010000000002
403.7999999999999,-0.0304340000000002
403.99999999999983,-0.0324190000000002
404.1999999999999,-0.0329360000000003
404.3999999999999,-0.0335750000000003
404.5999999999999,-0.0322760000000001
404.7999999999999,-0.0318520000000002
404.99999999999983,-0.0308690000000002
405.1999999999999,-0.0329690000000002
405.3999999999999,-0.0324870000000001
405.5999999999999,-0.0319600000000002
405.7999999999999,-0.0322950000000001
405.99999999999983,-0.0328350000000001
406.1999999999999,-0.0306100000000002
406.3999999999999,-0.0300720000000003
406.5999999999999,-0.0318830000000003
406.7999999999999,-0.0318370000000003
406.99999999999983,-0.0299870000000002
407.1999999999999,-0.0287650000000001
407.3999999999999,-0.0275000000000003
407.5999999999999,-0.0254120000000002
407.7999999999999,-0.0242630000000003
407.99999999999983,-0.0256200000000001
408.1999999999999,-0.0286830000000002
408.3999999999999,-0.0331100000000001
408.5999999999999,-0.0360030000000002
408.7999999999999,-0.0360680000000002
408.99999999999983,-0.0341110000000002
409.1999999999999,-0.0312340000000002
409.3999999999999,-0.0265500000000002
409.5999999999999,-0.0232650000000003
409.7999999999999,-0.0215470000000002
409.99999999999983,-0.0213370000000001
410.1999999999999,-0.0209440000000002
410.3999999999999,-0.0233670000000003
410.5999999999999,-0.0268200000000002
410.7999999999999,-0.0310750000000001
410.99999999999983,-0.0355290000000003
411.1999999999999,-0.0396620000000003
411.3999999999999,-0.0393590000000003
411.5999999999999,-0.0387730000000001
411.7999999999999,-0.0371900000000002
411.99999999999983,-0.0346510000000002
412.1999999999999,-0.0322310000000003
412.3999999999999,-0.0320610000000003
412.5999999999999,-0.0310590000000001
412.7999999999999,-0.0291310000000002
412.99999999999983,-0.0267550000000003
413.1999999999999,-0.0254670000000003
413.3999999999999,-0.0247800000000002
413.5999999999999,-0.0237570000000002
413.7999999999999,-0.0251260000000002
413.99999999999983,-0.0259760000000002
414.1999999999999,-0.0267240000000001
414.3999999999999,-0.0281810000000002
414.5999999999999,-0.0309490000000003
414.7999999999999,-0.0323330000000001
414.99999999999983,-0.0332740000000002
415.1999999999999,-0.0340800000000003
415.3999999999999,-0.0346320000000002
415.5999999999999,-0.0354930000000002
415.7999999999999,-0.0346010000000003
415.99999999999983,-0.0347310000000002
416.1999999999999,-0.0338700000000002
416.3999999999999,-0.0319930000000001
416.5999999999999,-0.0279620000000002
416.7999999999999,-0.0275260000000001
416.99999999999983,-0.0296380000000002
417.1999999999999,-0.0330020000000002
417.3999999999999,-0.0359600000000002
417.5999999999999,-0.0384590000000002
417.7999999999999,-0.0388380000000001
417.99999999999983,-0.0363680000000001
418.1999999999999,-0.0336160000000003
418.3999999999999,-0.0328070000000002
418.5999999999999,-0.0342480000000002
418.7999999999999,-0.0349990000000002
418.99999999999983,-0.0353980000000002
419.1999999999999,-0.0348320000000001
419.3999999999999,-0.0343000000000002
419.5999999999999,-0.0345350000000002
419.7999999999999,-0.0361980000000001
419.99999999999983,-0.0384490000000001
420.1999999999999,-0.0379470000000001
420.3999999999999,-0.0343680000000001
420.5999999999999,-0.0300460000000002
420.7999999999999,-0.0276000000000002
420.99999999999983,-0.0247860000000001
421.1999999999999,-0.0259530000000003
421.3999999999999,-0.0289210000000001
421.5999999999999,-0.0312080000000003
421.7999999999999,-0.0302400000000002
421.99999999999983,-0.0298910000000003
422.1999999999999,-0.0296030000000002
422.3999999999999,-0.0294020000000001
422.5999999999999,-0.0290660000000002
422.7999999999999,-0.0315130000000003
422.99999999999983,-0.0345610000000002
423.1999999999999,-0.0364130000000002
423.3999999999999,-0.0382700000000002
423.5999999999999,-0.0386950000000001
423.7999999999999,-0.0370800000000002
423.99999999999983,-0.0364740000000003
424.1999999999999,-0.0356420000000001
424.3999999999999,-0.0358400000000003
424.5999999999999,-0.0375210000000003
424.7999999999999,-0.0393290000000001
424.99999999999983,-0.0399200000000001
425.1999999999999,-0.0386800000000002
425.3999999999999,-0.0365590000000002
425.5999999999999,-0.0332870000000002
425.7999999999999,-0.0316800000000001
425.99999999999983,-0.0300950000000002
426.1999999999999,-0.0309590000000001
426.3999999999999,-0.0303320000000002
426.5999999999999,-0.0325150000000002
426.7999999999999,-0.0347580000000002
426.99999999999983,-0.0336650000000002
427.1999999999999,-0.0316850000000001
427.3999999999999,-0.0328940000000002
427.5999999999999,-0.0329960000000002
427.7999999999999,-0.0325900000000003
427.99999999999983,-0.0334040000000002
428.1999999999999,-0.0352040000000002
428.3999999999999,-0.0345110000000001
428.5999999999999,-0.0328940000000002
428.7999999999999,-0.0318570000000002
428.99999999999983,-0.0332270000000003
429.1999999999999,-0.0325970000000002
429.3999999999999,-0.0329250000000003
429.5999999999999,-0.0327180000000002
429.7999999999999,-0.0322620000000002
429.99999999999983,-0.0313630000000002
430.1999999999999,-0.0314000000000003
430.3999999999999,-0.0302460000000002
430.5999999999999,-0.0300520000000001
430.7999999999999,-0.0283530000000002
430.99999999999983,-0.0272120000000002
431.1999999999999,-0.0268540000000001
431.3999999999999,-0.0284890000000002
431.5999999999999,-0.0299550000000001
431.7999999999999,-0.0303210000000002
431.99999999999983,-0.0308630000000003
432.1999999999999,-0.0328220000000003
432.3999999999999,-0.0347180000000002
432.5999999999999,-0.0354410000000002
432.7999999999999,-0.0375920000000002
432.99999999999983,-0.0381890000000002
433.1999999999999,-0.0356030000000002
433.3999999999999,-0.0332720000000001
433.5999999999999,-0.0328400000000002
433.7999999999999,-0.0323690000000003
433.99999999999983,-0.0330430000000001
434.1999999999999,-0.0356940000000003
434.3999999999999,-0.0353070000000002
434.5999999999999,-0.0316630000000002
434.7999999999999,-0.0295250000000002
434.99999999999983,-0.0286670000000002
435.1999999999999,-0.0295670000000003
435.3999999999999,-0.0293500000000002
435.5999999999999,-0.0305280000000003
435.7999999999999,-0.0297040000000001
435.99999999999983,-0.0297560000000003
436.1999999999999,-0.0278970000000002
436.3999999999999,-0.0295280000000002
436.5999999999999,-0.0315640000000001
436.7999999999999,-0.0337870000000002
436.99999999999983,-0.0320570000000002
437.1999999999999,-0.0291050000000001
437.3999999999999,-0.0262530000000003
437.5999999999999,-0.0265060000000003
437.7999999999999,-0.0278320000000003
437.99999999999983,-0.0323170000000001
438.1999999999999,-0.0364060000000001
438.3999999999999,-0.0391200000000002
438.5999999999999,-0.0384810000000002
438.7999999999999,-0.0373020000000001
438.99999999999983,-0.0330140000000003
439.1999999999999,-0.0324580000000003
439.3999999999999,-0.0327980000000003
439.5999999999999,-0.0344700000000002
439.7999999999999,-0.0352960000000002
439.99999999999983,-0.0378820000000001
440.1999999999999,-0.0369330000000003
440.3999999999999,-0.0360090000000001
440.5999999999999,-0.0363050000000002
440.7999999999999,-0.0361960000000003
440.99999999999983,-0.0355310000000002
441.1999999999999,-0.0376380000000002
441.3999999999999,-0.0388920000000001
441.5999999999999,-0.0378130000000003
441.7999999999999,-0.0364830000000002
441.99999999999983,-0.0357780000000003
442.1999999999999,-0.0341680000000002
442.3999999999999,-0.0343900000000003
442.5999999999999,-0.0333830000000001
442.7999999999999,-0.0340900000000001
442.99999999999983,-0.0336860000000003
443.1999999999999,-0.0324850000000003
443.3999999999999,-0.0300810000000002
443.5999999999999,-0.0302550000000003
443.7999999999999,-0.0311520000000002
443.99999999999983,-0.0314360000000002
444.1999999999999,-0.0340550000000001
444.3999999999999,-0.0362140000000001
444.5999999999999,-0.0385270000000002
444.7999999999999,-0.0403020000000002
444.99999999999983,-0.0439000000000002
445.1999999999999,-0.0422030000000002
445.3999999999999,-0.0403840000000002
445.5999999999999,-0.0377410000000002
445.7999999999999,-0.0347530000000002
445.99999999999983,-0.0332340000000002
446.1999999999999,-0.0325010000000003
446.3999999999999,-0.0314030000000002
446.5999999999999,-0.0312660000000002
446.7999999999999,-0.0322290000000002
446.99999999999983,-0.0296060000000002
447.1999999999999,-0.0296490000000002
447.3999999999999,-0.0314680000000002
447.5999999999999,-0.0327850000000002
447.7999999999999,-0.0334000000000003
447.99999999999983,-0.0345570000000001
448.1999999999999,-0.0365860000000002
448.3999999999999,-0.0373770000000002
448.5999999999999,-0.0365400000000002
448.7999999999999,-0.0345550000000003
448.99999999999983,-0.0331670000000001
449.1999999999999,-0.0321760000000002
449.3999999999999,-0.0332710000000002
449.5999999999999,-0.0340690000000003
449.7999999999999,-0.0320160000000002
449.99999999999983,-0.0308440000000003
450.1999999999999,-0.0305630000000003
450.3999999999999,-0.0303920000000001
450.5999999999999,-0.0312230000000002
450.7999999999999,-0.0346830000000002
450.99999999999983,-0.0362480000000002
451.1999999999999,-0.0340440000000001
451.3999999999999,-0.0316370000000003
451.5999999999999,-0.0306790000000003
451.7999999999999,-0.0309050000000001
451.99999999999983,-0.0310020000000001
452.1999999999999,-0.0322480000000002
452.3999999999999,-0.0335850000000002
452.5999999999999,-0.0348430000000001
452.7999999999999,-0.0347680000000003
452.99999999999983,-0.0351550000000002
453.1999999999999,-0.0363210000000002
453.3999999999999,-0.0368670000000002
453.5999999999999,-0.0369710000000003
453.7999999999999,-0.0384090000000003
453.99999999999983,-0.0415370000000001
454.1999999999999,-0.0426250000000003
454.3999999999999,-0.0404470000000003
454.5999999999999,-0.0382780000000002
454.7999999999999,-0.0347020000000002
454.99999999999983,-0.0318190000000002
455.1999999999999,-0.0288040000000002
455.3999999999999,-0.0282520000000001
455.5999999999999,-0.0267390000000002
455.7999999999999,-0.0269960000000002
455.99999999999983,-0.0263010000000003
456.1999999999999,-0.0278050000000003
456.3999999999999,-0.0275480000000003
456.5999999999999,-0.0280960000000003
456.7999999999999,-0.0297550000000001
456.99999999999983,-0.0321140000000002
457.1999999999999,-0.0330640000000002
457.3999999999999,-0.0349710000000003
457.5999999999999,-0.0358230000000001
457.7999999999999,-0.0364510000000002
457.99999999999983,-0.0357830000000003
458.1999999999999,-0.0350240000000001
458.3999999999999,-0.0369410000000003
458.5999999999999,-0.0388570000000003
458.7999999999999,-0.0393760000000003
458.99999999999983,-0.0401880000000003
459.1999999999999,-0.0432090000000002
459.3999999999999,-0.0435950000000002
459.5999999999999,-0.0444160000000002
459.7999999999999,-0.0438990000000003
459.99999999999983,-0.0431240000000001
460.1999999999999,-0.0423280000000003
460.3999999999999,-0.0424970000000002
460.5999999999999,-0.0407880000000002
460.7999999999999,-0.0400250000000002
460.99999999999983,-0.0406880000000002
461.1999999999999,-0.0429750000000002
461.3999999999999,-0.0438320000000003
461.5999999999999,-0.0452410000000003
461.7999999999999,-0.0475850000000002
461.99999999999983,-0.0500750000000003
462.1999999999999,-0.0488010000000003
462.3999999999999,-0.0465010000000003
462.5999999999999,-0.0452320000000001
462.7999999999999,-0.0425540000000002
462.99999999999983,-0.0392370000000001
463.1999999999999,-0.0358100000000003
463.3999999999999,-0.0334000000000003
463.5999999999999,-0.0317730000000002
463.7999999999999,-0.0303150000000003
463.99999999999983,-0.0292090000000002
464.1999999999999,-0.0294920000000002
464.3999999999999,-0.0309280000000002
464.5999999999999,-0.0310220000000003
464.7999999999999,-0.0320920000000002
464.99999999999983,-0.0322340000000003
465.1999999999999,-0.0318890000000002
465.3999999999999,-0.0307880000000002
465.5999999999999,-0.0300320000000002
465.7999999999999,-0.0298290000000003
465.99999999999983,-0.0311800000000002
466.1999999999999,-0.0314390000000002
466.3999999999999,-0.0320970000000002
466.5999999999999,-0.0336360000000002
466.7999999999999,-0.0348560000000002
466.99999999999983,-0.0344370000000002
467.1999999999999,-0.0348960000000002
467.3999999999999,-0.0367550000000003
467.5999999999999,-0.0376700000000003
467.7999999999999,-0.0372610000000002
467.99999999999983,-0.0370040000000002
468.1999999999999,-0.0356720000000001
468.3999999999999,-0.0341420000000003
468.5999999999999,-0.0336380000000002
468.7999999999999,-0.0339000000000002
468.99999999999983,-0.0335700000000003
469.1999999999999,-0.0343650000000002
469.3999999999999,-0.0347030000000001
469.5999999999999,-0.0361240000000002
469.7999999999999,-0.0373610000000002
469.99999999999983,-0.0372820000000002
470.1999999999999,-0.0376040000000001
470.3999999999999,-0.0374910000000001
470.5999999999999,-0.0364510000000002
470.7999999999999,-0.0351630000000002
470.99999999999983,-0.0361430000000002
471.1999999999999,-0.0364700000000002
471.3999999999999,-0.0362530000000003
471.5999999999999,-0.0335570000000002
471.7999999999999,-0.0316690000000001
471.99999999999983,-0.0289770000000002
472.1999999999999,-0.0283930000000003
472.3999999999999,-0.0276910000000003
472.5999999999999,-0.0301090000000001
472.7999999999999,-0.0326880000000002
472.99999999999983,-0.0349270000000001
473.1999999999999,-0.0343330000000001
473.3999999999999,-0.0350440000000003
473.5999999999999,-0.0363130000000002
473.7999999999999,-0.0363120000000003
473.99999999999983,-0.0372470000000002
474.1999999999999,-0.0389160000000001
474.3999999999999,-0.0421610000000003
474.5999999999999,-0.0426020000000002
474.7999999999999,-0.0411150000000002
474.99999999999983,-0.0380920000000002
475.1999999999999,-0.0362540000000002
475.3999999999999,-0.0304450000000002
475.5999999999999,-0.0272870000000002
475.7999999999999,-0.0276430000000003
475.99999999999983,-0.0308190000000001
476.1999999999999,-0.0322150000000003
476.3999999999999,-0.0357480000000003
476.5999999999999,-0.0371290000000001
476.7999999999999,-0.0371150000000002
476.99999999999983,-0.0350360000000002
477.1999999999999,-0.0344390000000003
477.3999999999999,-0.0334190000000003
477.5999999999999,-0.0322000000000002
477.7999999999999,-0.0318830000000003
477.99999999999983,-0.0327010000000003
478.1999999999999,-0.0328230000000002
478.3999999999999,-0.0326390000000003
478.5999999999999,-0.0342180000000003
478.7999999999999,-0.0341520000000001
478.99999999999983,-0.0323160000000002
479.1999999999999,-0.0308920000000003
479.3999999999999,-0.0313010000000002
479.5999999999999,-0.0307310000000002
479.7999999999999,-0.0299810000000002
479.99999999999983,-0.0293610000000001
480.1999999999999,-0.0307880000000002
480.3999999999999,-0.0297530000000003
480.5999999999999,-0.0269050000000001
480.7999999999999,-0.0267300000000003
480.99999999999983,-0.0281290000000002
481.1999999999999,-0.0271190000000003
481.3999999999999,-0.0269270000000003
481.5999999999999,-0.0298360000000001
481.7999999999999,-0.0332360000000002
481.99999999999983,-0.0361880000000003
482.1999999999999,-0.0378040000000001
482.3999999999999,-0.0397160000000003
482.5999999999999,-0.0409140000000003
482.7999999999999,-0.0393570000000003
482.99999999999983,-0.0372770000000002
483.1999999999999,-0.0380100000000003
483.3999999999999,-0.0396920000000002
483.5999999999999,-0.0404520000000001
483.7999999999999,-0.0411100000000002
483.99999999999983,-0.0430480000000002
484.1999999999999,-0.0420530000000003
484.3999999999999,-0.0384170000000003
484.5999999999999,-0.0345150000000002
484.7999999999999,-0.0322850000000003
484.99999999999983,-0.0284790000000003
485.1999999999999,-0.0284960000000003
485.3999999999999,-0.0291620000000003
485.5999999999999,-0.0318320000000003
485.7999999999999,-0.0332850000000002
485.99999999999983,-0.0361310000000003
486.1999999999999,-0.0362720000000003
486.3999999999999,-0.0365710000000003
486.5999999999999,-0.0365780000000002
486.7999999999999,-0.0380480000000003
486.99999999999983,-0.0378910000000003
487.1999999999999,-0.0370880000000002
487.3999999999999,-0.0375920000000002
487.5999999999999,-0.0374780000000003
487.7999999999999,-0.0369230000000002
487.99999999999983,-0.0372190000000003
488.1999999999999,-0.0388810000000001
488.3999999999999,-0.0411490000000003
488.5999999999999,-0.0403720000000003
488.7999999999999,-0.0381560000000003
488.99999999999983,-0.0358160000000002
489.1999999999999,-0.0347740000000003
489.3999999999999,-0.0340050000000002
489.5999999999999,-0.0350990000000002
489.7999999999999,-0.0363920000000002
489.99999999999983,-0.0394330000000002
490.1999999999999,-0.0420580000000001
490.3999999999999,-0.0424320000000002
490.5999999999999,-0.0421670000000002
490.7999999999999,-0.0436920000000002
490.99999999999983,-0.0435720000000001
491.1999999999999,-0.0415530000000001
491.3999999999999,-0.0393800000000001
491.5999999999999,-0.0387900000000003
491.7999999999999,-0.0362120000000003
491.99999999999983,-0.0332040000000002
492.1999999999999,-0.0316400000000003
492.3999999999999,-0.0315880000000001
492.5999999999999,-0.0321760000000002
492.7999999999999,-0.0350310000000002
492.99999999999983,-0.0373400000000001
493.1999999999999,-0.0391600000000003
493.3999999999999,-0.0367950000000003
493.5999999999999,-0.0320720000000003
493.7999999999999,-0.0257550000000001
493.99999999999983,-0.0218430000000002
494.1999999999999,-0.0192350000000003
494.3999999999999,-0.0234640000000001
494.5999999999999,-0.0284650000000001
494.7999999999999,-0.0328900000000003
494.99999999999983,-0.0359970000000002
495.1999999999999,-0.0373480000000001
495.3999999999999,-0.0344840000000001
495.5999999999999,-0.0338140000000002
495.7999999999999,-0.0342290000000002
495.99999999999983,-0.0350740000000002
496.1999999999999,-0.0345740000000003
496.3999999999999,-0.0343960000000003
496.5999999999999,-0.0327060000000003
496.7999999999999,-0.0310770000000002
496.99999999999983,-0.0291130000000001
497.1999999999999,-0.0291750000000001
497.3999999999999,-0.0286650000000001
497.5999999999999,-0.0296340000000001
497.7999999999999,-0.0301710000000001
497.99999999999983,-0.0290890000000003
498.1999999999999,-0.0283660000000003
498.3999999999999,-0.0304810000000002
498.5999999999999,-0.0303640000000002
498.7999999999999,-0.0310160000000001
498.99999999999983,-0.0346850000000003
499.1999999999999,-0.0366430000000002
499.3999999999999,-0.0352420000000002
499.5999999999999,-0.0330230000000002
499.7999999999999,-0.0320410000000002
499.99999999999983,-0.0315270000000003
500.1999999999999,-0.0327120000000002
500.3999999999999,-0.0335160000000003
500.5999999999999,-0.0356010000000002
500.7999999999999,-0.0372670000000001
500.99999999999983,-0.0355050000000003
501.1999999999999,-0.0351130000000001
501.3999999999999,-0.0343950000000001
501.5999999999999,-0.0349740000000002
501.7999999999999,-0.0326610000000002
501.99999999999983,-0.0333430000000003
502.1999999999999,-0.0350460000000003
502.3999999999999,-0.0368760000000003
502.5999999999999,-0.0369210000000002
502.7999999999999,-0.0380400000000002
502.99999999999983,-0.0383190000000002
503.1999999999999,-0.0356040000000001
503.3999999999999,-0.0342210000000002
503.5999999999999,-0.0331910000000001
503.7999999999999,-0.0322310000000003
503.99999999999983,-0.0305650000000001
504.1999999999999,-0.0304880000000002
504.3999999999999,-0.0317770000000001
504.5999999999999,-0.0331230000000002
504.7999999999999,-0.0346530000000002
504.99999999999983,-0.0367380000000001
505.1999999999999,-0.0368030000000003
505.3999999999999,-0.0366270000000001
505.5999999999999,-0.0377350000000002
505.7999999999999,-0.0400470000000001
505.99999999999983,-0.0402290000000002
506.1999999999999,-0.0407990000000002
506.3999999999999,-0.0403310000000003
506.5999999999999,-0.0367670000000002
506.7999999999999,-0.0326320000000002
506.99999999999983,-0.0304200000000003
507.1999999999999,-0.0311480000000001
507.3999999999999,-0.0333590000000003
507.5999999999999,-0.0383810000000002
507.7999999999999,-0.0391200000000002
507.99999999999983,-0.0402490000000002
508.1999999999999,-0.0403880000000003
508.3999999999999,-0.0396100000000003
508.5999999999999,-0.0368310000000002
508.7999999999999,-0.0370780000000001
508.99999999999983,-0.0363230000000003
509.1999999999999,-0.0350750000000001
509.3999999999999,-0.0330560000000001
509.5999999999999,-0.0314160000000003
509.7999999999999,-0.0299920000000002
509.99999999999983,-0.0307540000000001
510.1999999999998,-0.0304880000000002
510.3999999999999,-0.0324890000000002
510.5999999999999,-0.0360930000000001
510.8,-0.0404300000000001
510.9999999999998,-0.0405280000000003
511.1999999999998,-0.0383140000000001
511.3999999999999,-0.0355870000000002
511.5999999999999,-0.0339790000000002
511.8,-0.0329720000000002
511.9999999999998,-0.0345310000000003
512.1999999999998,-0.0380140000000002
512.3999999999999,-0.0394950000000002
512.5999999999999,-0.0409990000000002
512.8,-0.0416730000000002
512.9999999999998,-0.0415150000000001
513.1999999999998,-0.0379250000000002
513.3999999999999,-0.0352280000000002
513.5999999999999,-0.0328980000000003
513.8,-0.0315110000000002
513.9999999999998,-0.0310740000000002
514.1999999999998,-0.0346930000000003
514.3999999999999,-0.0373000000000003
514.5999999999999,-0.0377920000000002
514.8,-0.0374560000000001
514.9999999999998,-0.0370460000000003
515.1999999999998,-0.0374310000000002
515.3999999999999,-0.0391330000000003
515.5999999999999,-0.0413030000000003
515.8,-0.0426750000000002
515.9999999999998,-0.0443190000000002
516.1999999999998,-0.0446000000000001
516.3999999999999,-0.0429070000000002
516.5999999999999,-0.0405180000000002
516.8,-0.0400030000000002
516.9999999999998,-0.0400850000000001
517.1999999999998,-0.0371870000000003
517.3999999999999,-0.0352160000000003
517.5999999999999,-0.0337400000000003
517.8,-0.0323410000000001
517.9999999999998,-0.0298000000000002
518.1999999999998,-0.0311060000000003
518.3999999999999,-0.0324950000000001
518.5999999999999,-0.0333060000000002
518.8,-0.0324890000000002
518.9999999999998,-0.0317430000000003
519.1999999999998,-0.0303780000000002
519.3999999999999,-0.0280850000000003
519.5999999999999,-0.0266810000000001
519.8,-0.0273390000000002
519.9999999999998,-0.0286500000000002
520.1999999999998,-0.0299640000000003
520.3999999999999,-0.0337920000000002
520.5999999999999,-0.0368860000000001
520.8,-0.0391770000000002
520.9999999999998,-0.0424770000000003
521.1999999999998,-0.0455270000000003
521.3999999999999,-0.0444620000000002
521.5999999999999,-0.0439660000000001
521.8,-0.0427260000000002
521.9999999999998,-0.0394570000000003
522.1999999999998,-0.0368510000000001
522.3999999999999,-0.0388800000000002
522.5999999999999,-0.0416930000000002
522.8,-0.0442660000000003
522.9999999999998,-0.0447050000000002
523.1999999999998,-0.0430410000000003
523.3999999999999,-0.0395260000000001
523.5999999999999,-0.0354300000000002
523.8,-0.0312410000000002
523.9999999999998,-0.0300250000000001
524.1999999999998,-0.0302880000000003
524.3999999999999,-0.0322940000000002
524.5999999999999,-0.0334640000000001
524.8,-0.0346570000000001
524.9999999999998,-0.0346210000000002
525.1999999999998,-0.0373400000000001
525.3999999999999,-0.0371900000000002
525.5999999999999,-0.0373020000000001
525.8,-0.0374190000000003
525.9999999999998,-0.0377700000000003
526.1999999999998,-0.0351260000000002
526.3999999999999,-0.0348750000000002
526.5999999999999,-0.0354320000000003
526.8,-0.0361000000000002
526.9999999999998,-0.0374740000000002
527.1999999999998,-0.0392180000000002
527.3999999999999,-0.0379360000000001
527.5999999999999,-0.0367440000000003
527.8,-0.0355100000000001
527.9999999999998,-0.0350740000000002
528.1999999999998,-0.0334200000000002
528.3999999999999,-0.0345210000000002
528.5999999999999,-0.0356820000000002
528.8,-0.0366370000000002
528.9999999999998,-0.0379310000000001
529.1999999999998,-0.0401390000000001
529.3999999999999,-0.0426040000000003
529.5999999999999,-0.0425090000000003
529.8,-0.0435340000000001
529.9999999999998,-0.0431970000000001
530.1999999999998,-0.0429260000000002
530.3999999999999,-0.0410630000000002
530.5999999999999,-0.0400600000000002
530.8,-0.0397080000000003
530.9999999999998,-0.0397530000000001
531.1999999999998,-0.0400200000000001
531.3999999999999,-0.0398110000000002
531.5999999999999,-0.0421190000000002
531.8,-0.0413660000000002
531.9999999999998,-0.0402240000000002
532.1999999999998,-0.0379630000000001
532.3999999999999,-0.0369220000000003
532.5999999999999,-0.0345420000000002
532.8,-0.0331570000000003
532.9999999999998,-0.0332600000000002
533.1999999999998,-0.0361350000000002
533.3999999999999,-0.0383120000000003
533.5999999999999,-0.0399100000000003
533.8,-0.0400330000000002
533.9999999999998,-0.0392010000000002
534.1999999999998,-0.0369060000000003
534.3999999999999,-0.0363420000000003
534.5999999999999,-0.0353580000000002
534.8,-0.0360740000000001
534.9999999999998,-0.0369150000000002
535.1999999999998,-0.0385760000000001
535.3999999999999,-0.0399140000000002
535.5999999999999,-0.0435270000000003
535.8,-0.0461860000000002
535.9999999999998,-0.0469730000000001
536.1999999999998,-0.0458150000000001
536.3999999999999,-0.0439930000000001
536.5999999999999,-0.0402410000000001
536.8,-0.0377270000000002
536.9999999999998,-0.0355790000000002
537.1999999999998,-0.0341950000000002
537.3999999999999,-0.0346730000000001
537.5999999999999,-0.0356500000000001
537.8,-0.0371960000000002
537.9999999999998,-0.0378720000000003
538.1999999999998,-0.0381970000000002
538.3999999999999,-0.0379370000000003
538.5999999999999,-0.0376920000000002
538.8,-0.0373830000000001
538.9999999999998,-0.0382130000000002
539.1999999999998,-0.0412100000000001
539.3999999999999,-0.0411360000000002
539.5999999999999,-0.0411850000000002
539.8,-0.0412460000000003
539.9999999999998,-0.0425040000000003
540.1999999999998,-0.0413310000000002
540.3999999999999,-0.0422720000000003
540.5999999999999,-0.0418910000000003
540.8,-0.0406460000000001
540.9999999999998,-0.0396870000000002
541.1999999999998,-0.0363580000000003
541.3999999999999,-0.0339390000000001
541.5999999999999,-0.0330250000000003
541.8,-0.0325640000000002
541.9999999999998,-0.0320970000000002
542.1999999999998,-0.0346210000000002
542.3999999999999,-0.0367740000000003
542.5999999999999,-0.0391500000000002
542.8,-0.0411680000000003
542.9999999999998,-0.0392730000000003
543.1999999999998,-0.0389160000000001
543.3999999999999,-0.0386190000000001
543.5999999999999,-0.0375040000000002
543.8,-0.0346270000000001
543.9999999999998,-0.0356500000000001
544.1999999999998,-0.0363930000000003
544.3999999999999,-0.0365510000000002
544.5999999999999,-0.0350170000000003
544.8,-0.0348040000000002
544.9999999999998,-0.0338890000000002
545.1999999999998,-0.0319730000000002
545.3999999999999,-0.0301070000000003
545.5999999999999,-0.0299620000000002
545.8,-0.0310110000000003
545.9999999999998,-0.0325450000000002
546.1999999999998,-0.0344410000000001
546.3999999999999,-0.0337160000000003
546.5999999999999,-0.0342540000000002
546.8,-0.0361560000000003
546.9999999999998,-0.0360440000000001
547.1999999999998,-0.0347430000000001
547.3999999999999,-0.0369940000000001
547.5999999999999,-0.0379210000000003
547.8,-0.0372620000000003
547.9999999999998,-0.0360320000000002
548.1999999999998,-0.0345870000000003
548.3999999999999,-0.0317450000000003
548.5999999999999,-0.0306030000000001
548.8,-0.0326750000000002
548.9999999999998,-0.0359090000000001
549.1999999999998,-0.0406130000000002
549.3999999999999,-0.0441180000000003
549.5999999999999,-0.0484350000000002
549.8,-0.0493600000000002
549.9999999999998,-0.0498930000000001
550.1999999999998,-0.0470070000000002
550.3999999999999,-0.0453260000000002
550.5999999999999,-0.0414610000000001
550.8,-0.0384910000000002
550.9999999999998,-0.0366550000000003
551.1999999999998,-0.0374490000000002
551.3999999999999,-0.0386750000000002
551.5999999999999,-0.0388320000000002
551.8,-0.0376570000000002
551.9999999999998,-0.0369600000000003
552.1999999999998,-0.0371200000000002
552.3999999999999,-0.0351890000000003
552.5999999999999,-0.0338570000000002
552.8,-0.0327450000000002
552.9999999999998,-0.0338780000000003
553.1999999999998,-0.0341550000000001
553.3999999999999,-0.0376210000000003
553.5999999999999,-0.0407560000000002
553.8,-0.0439460000000002
553.9999999999998,-0.0427910000000002
554.1999999999998,-0.0417110000000002
554.3999999999999,-0.0390250000000003
554.5999999999999,-0.0376930000000002
554.8,-0.0377440000000002
554.9999999999998,-0.0393820000000002
555.1999999999998,-0.0391660000000002
555.3999999999999,-0.0396580000000001
555.5999999999999,-0.0390180000000002
555.8,-0.0378600000000002
555.9999999999998,-0.0369620000000001
556.1999999999998,-0.0378280000000001
556.3999999999999,-0.0373380000000003
556.5999999999999,-0.0381770000000003
556.8,-0.0387530000000002
556.9999999999998,-0.0386570000000001
557.1999999999998,-0.0359950000000002
557.3999999999999,-0.0347380000000001
557.5999999999999,-0.0333480000000001
557.8,-0.0329600000000003
557.9999999999998,-0.0325690000000002
558.1999999999998,-0.0352820000000002
558.3999999999999,-0.0370930000000002
558.5999999999999,-0.0376530000000001
558.8,-0.0368220000000003
558.9999999999998,-0.0360420000000003
559.1999999999998,-0.0344830000000002
559.3999999999999,-0.0336500000000001
559.5999999999999,-0.0338640000000003
559.8,-0.0349880000000002
559.9999999999998,-0.0350240000000001
560.1999999999998,-0.0349620000000001
560.3999999999999,-0.0346710000000003
560.5999999999999,-0.0340490000000002
560.8,-0.0326750000000002
560.9999999999998,-0.0346670000000002
561.1999999999998,-0.0377360000000002
561.3999999999999,-0.0406230000000003
561.5999999999999,-0.0415780000000003
561.8,-0.0423040000000003
561.9999999999998,-0.0399000000000002
562.1999999999998,-0.0362630000000001
562.3999999999999,-0.0348750000000002
562.5999999999999,-0.0337600000000002
562.8,-0.0350050000000001
562.9999999999998,-0.0379350000000002
563.1999999999998,-0.0421630000000001
563.3999999999999,-0.0425540000000002
563.5999999999999,-0.0447100000000002
563.8,-0.0424170000000001
563.9999999999998,-0.0402650000000002
564.1999999999998,-0.0380570000000002
564.3999999999999,-0.0376840000000002
564.5999999999999,-0.0366480000000002
564.8,-0.0380350000000002
564.9999999999998,-0.0401180000000003
565.1999999999998,-0.0415020000000001
565.3999999999999,-0.0422040000000003
565.5999999999999,-0.0430320000000001
565.8,-0.0441480000000003
565.9999999999998,-0.0450510000000001
566.1999999999998,-0.0450740000000002
566.3999999999999,-0.0443550000000003
566.5999999999999,-0.0439200000000001
566.8,-0.0422700000000002
566.9999999999998,-0.0390170000000003
567.1999999999998,-0.0369880000000002
567.3999999999999,-0.0381670000000002
567.5999999999999,-0.0411560000000001
567.8,-0.0437810000000002
567.9999999999998,-0.0446960000000002
568.1999999999998,-0.0446380000000001
568.3999999999999,-0.0426060000000003
568.5999999999999,-0.0400950000000002
568.8,-0.0355000000000003
568.9999999999998,-0.0351670000000001
569.1999999999998,-0.0367760000000003
569.3999999999999,-0.0380540000000002
569.5999999999999,-0.0380500000000003
569.8,-0.0413810000000003
569.9999999999998,-0.0425330000000001
570.1999999999998,-0.0428440000000003
570.3999999999999,-0.0436480000000003
570.5999999999999,-0.0435940000000003
570.8,-0.0434340000000001
570.9999999999998,-0.0431600000000003
571.1999999999998,-0.0433060000000002
571.3999999999999,-0.0445950000000001
571.5999999999999,-0.0462330000000001
571.7999999999997,-0.0474650000000003
571.9999999999998,-0.0485740000000003
572.1999999999998,-0.0491670000000001
572.3999999999999,-0.0479870000000002
572.5999999999999,-0.0441790000000001
572.7999999999997,-0.0401130000000002
572.9999999999998,-0.0365350000000002
573.1999999999998,-0.0343660000000003
573.3999999999999,-0.0331060000000003
573.5999999999999,-0.0351350000000003
573.7999999999997,-0.0375240000000003
573.9999999999998,-0.0392440000000002
574.1999999999998,-0.0400830000000003
574.3999999999999,-0.0415200000000002
574.5999999999999,-0.0434780000000003
574.7999999999997,-0.0434300000000003
574.9999999999998,-0.0439170000000002
575.1999999999998,-0.0446990000000002
575.3999999999999,-0.0451880000000002
575.5999999999999,-0.0450170000000003
575.7999999999997,-0.0457670000000003
575.9999999999998,-0.0451540000000003
576.1999999999998,-0.0446890000000002
576.3999999999999,-0.0420750000000003
576.5999999999999,-0.0398980000000002
576.7999999999997,-0.0383600000000001
576.9999999999998,-0.0396310000000001
577.1999999999998,-0.0384090000000003
577.3999999999999,-0.0390810000000003
577.5999999999999,-0.0393600000000002
577.7999999999997,-0.0407610000000002
577.9999999999998,-0.0401730000000002
578.1999999999998,-0.0402070000000003
578.3999999999999,-0.0397000000000002
578.5999999999999,-0.0394700000000003
578.7999999999997,-0.0393370000000001
578.9999999999998,-0.0407110000000001
579.1999999999998,-0.0420910000000003
579.3999999999999,-0.0444450000000002
579.5999999999999,-0.0469110000000001
579.7999999999997,-0.0475270000000003
579.9999999999998,-0.0452370000000001
580.1999999999998,-0.0438470000000001
580.3999999999999,-0.0431960000000002
580.5999999999999,-0.0426400000000002
580.7999999999997,-0.0432740000000002
580.9999999999998,-0.0433210000000001
581.1999999999998,-0.0434060000000002
581.3999999999999,-0.0427340000000002
581.5999999999999,-0.0448580000000002
581.7999999999997,-0.0479320000000003
581.9999999999998,-0.0507310000000003
582.1999999999998,-0.0523720000000003
582.3999999999999,-0.0536500000000002
582.5999999999999,-0.0500150000000003
582.7999999999997,-0.0442980000000001
582.9999999999998,-0.0412270000000003
583.1999999999998,-0.0400240000000002
583.3999999999999,-0.0390330000000003
583.5999999999999,-0.0422510000000002
583.7999999999997,-0.0452190000000003
583.9999999999998,-0.0478780000000003
584.1999999999998,-0.0473570000000003
584.3999999999999,-0.0445850000000003
584.5999999999999,-0.0393190000000003
584.7999999999997,-0.0360590000000002
584.9999999999998,-0.0314170000000002
585.1999999999998,-0.0314190000000003
585.3999999999999,-0.0319600000000002
585.5999999999999,-0.0328750000000002
585.7999999999997,-0.0322580000000003
585.9999999999998,-0.0347780000000002
586.1999999999998,-0.0363260000000003
586.3999999999999,-0.0377900000000002
586.5999999999999,-0.0389030000000003
586.7999999999997,-0.0398540000000002
586.9999999999998,-0.0398720000000003
587.1999999999998,-0.0390470000000002
587.3999999999999,-0.0397900000000002
587.5999999999999,-0.0410670000000001
587.7999999999997,-0.0421830000000003
587.9999999999998,-0.0431580000000002
588.1999999999998,-0.0446190000000001
588.3999999999999,-0.0451320000000001
588.5999999999999,-0.0449250000000003
588.7999999999997,-0.0448450000000002
588.9999999999998,-0.0448450000000002
589.1999999999998,-0.0430670000000001
589.3999999999999,-0.0430000000000001
589.5999999999999,-0.0427490000000001
589.7999999999997,-0.0436280000000002
589.9999999999998,-0.0426140000000001
590.1999999999998,-0.0424510000000002
590.3999999999999,-0.0428430000000001
590.5999999999999,-0.0421760000000002
590.7999999999997,-0.0411610000000002
590.9999999999998,-0.0418840000000002
591.1999999999998,-0.0436260000000001
591.3999999999999,-0.0423970000000002
591.5999999999999,-0.0423550000000003
591.7999999999997,-0.0430360000000002
591.9999999999998,-0.0437230000000001
592.1999999999998,-0.0428000000000001
592.3999999999999,-0.0439440000000002
592.5999999999999,-0.0446950000000001
592.7999999999997,-0.0448700000000001
592.9999999999998,-0.0441250000000001
593.1999999999998,-0.0431950000000003
593.3999999999999,-0.0410790000000003
593.5999999999999,-0.0404920000000001
593.7999999999997,-0.0399010000000001
593.9999999999998,-0.0393420000000002
594.1999999999998,-0.0398900000000002
594.3999999999999,-0.0402440000000001
594.5999999999999,-0.0413370000000001
594.7999999999997,-0.0416770000000001
594.9999999999998,-0.0441730000000002
595.1999999999998,-0.0467260000000002
595.3999999999999,-0.0483860000000002
595.5999999999999,-0.0467490000000001
595.7999999999997,-0.0434960000000002
595.9999999999998,-0.0394530000000001
596.1999999999998,-0.0352830000000001
596.3999999999999,-0.0323730000000002
596.5999999999999,-0.0322670000000002
596.7999999999997,-0.0349300000000003
596.9999999999998,-0.0374480000000001
