Time (s),Shift (nm)
0.0,0.0
0.1999999999999886,-9.499999999995624e-05
0.4000000000000341,-0.0026159999999999
0.6000000000000227,-0.0037450000000001
0.8000000000000114,-0.0046650000000001
1.0,-0.004394
1.1999999999999886,-0.003492
1.400000000000034,3.500000000000725e-05
1.6000000000000227,0.0054069999999999
1.8000000000000114,0.0124819999999998
2.0,0.01638
2.1999999999999886,0.0188699999999999
2.400000000000034,0.0197829999999998
2.6000000000000227,0.0142729999999999
2.800000000000012,0.0072539999999998
3.0,0.0024009999999998
3.1999999999999886,-0.0017690000000001
3.400000000000034,-0.0052149999999999
3.6000000000000227,-0.0054020000000001
3.8000000000000114,-0.006143
4.0,-0.009436
4.199999999999989,-0.010604
4.400000000000034,-0.0125889999999999
4.600000000000023,-0.0112849999999999
4.800000000000011,-0.0104049999999999
5.0,-0.0049259999999999
5.199999999999989,-0.003883
5.400000000000034,-0.002628
5.600000000000023,-0.005945
5.800000000000011,-0.007568
6.0,-0.0125900000000001
6.199999999999989,-0.0093259999999999
6.400000000000034,-0.0045999999999999
6.600000000000023,0.0018759999999999
6.800000000000011,0.003649
7.0,0.0053429999999998
7.199999999999989,0.0001599999999999
7.400000000000034,-0.0035389999999999
7.600000000000023,-0.0056869999999999
7.800000000000011,-0.003924
8.0,-0.004696
8.199999999999989,-0.002469
8.400000000000034,-0.002342
8.600000000000023,-0.0019759999999999
8.800000000000011,-0.0022379999999999
9.0,-0.0010069999999999
9.199999999999989,-0.0033579999999999
9.400000000000034,-0.003757
9.600000000000025,-0.003651
9.800000000000011,-0.0018610000000001
10.0,-0.0012799999999999
10.199999999999989,0.0005599999999998
10.400000000000034,-0.0014979999999999
10.600000000000025,-0.0046159999999999
10.800000000000011,-0.008418
11.0,-0.008415
11.199999999999989,-0.008027
11.400000000000034,-0.0065239999999999
11.600000000000025,-0.0063489999999999
11.800000000000011,-0.0039930000000001
12.0,-0.0044429999999999
12.199999999999989,-0.0044379999999999
12.400000000000034,-0.005894
12.600000000000025,-0.005227
12.800000000000011,-0.005546
13.0,-0.0048529999999999
13.199999999999989,-0.00807
13.400000000000034,-0.0096199999999999
13.600000000000025,-0.0114940000000001
13.800000000000011,-0.0115400000000001
14.0,-0.0130609999999999
14.199999999999989,-0.011592
14.400000000000034,-0.012134
14.600000000000025,-0.012731
14.800000000000011,-0.017897
15.0,-0.02085
15.199999999999989,-0.021533
15.400000000000034,-0.0185729999999999
15.600000000000025,-0.018461
15.800000000000011,-0.0163280000000001
16.0,-0.0131339999999999
16.19999999999999,-0.012456
16.400000000000034,-0.0115069999999999
16.600000000000023,-0.009435
16.80000000000001,-0.0089460000000001
17.0,-0.009908
17.19999999999999,-0.0091860000000001
17.400000000000034,-0.0119299999999999
17.600000000000023,-0.0133149999999999
17.80000000000001,-0.012375
18.0,-0.009873
18.19999999999999,-0.008699
18.400000000000038,-0.006696
18.600000000000023,-0.00322
18.80000000000001,-0.0011769999999999
19.0,0.0016549999999999
19.19999999999999,0.0017909999999998
19.400000000000038,0.0019169999999999
19.600000000000023,-0.0004870000000001
19.80000000000001,-0.0014389999999999
20.0,-0.004893
20.19999999999999,-0.0079070000000001
20.400000000000038,-0.0102649999999999
20.600000000000023,-0.012318
20.80000000000001,-0.0160070000000001
21.0,-0.0173879999999999
21.19999999999999,-0.015192
21.400000000000038,-0.0119420000000001
21.600000000000023,-0.008718
21.80000000000001,-0.0088399999999999
22.0,-0.012186
22.19999999999999,-0.0148939999999999
22.400000000000038,-0.018048
22.600000000000023,-0.0174739999999999
22.80000000000001,-0.013913
23.0,-0.0100979999999999
23.19999999999999,-0.009257
23.400000000000038,-0.0088479999999999
23.600000000000023,-0.01119
23.80000000000001,-0.01384
24.0,-0.0157
24.19999999999999,-0.0159770000000001
24.400000000000038,-0.013943
24.600000000000023,-0.012698
24.80000000000001,-0.0114130000000001
25.0,-0.0088099999999999
25.19999999999999,-0.0057370000000001
25.400000000000038,-0.005427
25.600000000000023,-0.0074469999999999
25.80000000000001,-0.0104239999999999
26.0,-0.0138370000000001
26.19999999999999,-0.016726
26.400000000000038,-0.019147
26.600000000000023,-0.018955
26.80000000000001,-0.0179960000000001
27.0,-0.0171879999999999
27.19999999999999,-0.0173780000000001
27.400000000000038,-0.015525
27.600000000000023,-0.01157
27.80000000000001,-0.0066110000000001
28.0,-0.005376
28.19999999999999,-0.0023900000000001
28.400000000000038,0.0002949999999999
28.600000000000023,0.0010669999999999
28.80000000000001,0.0024429999999999
29.0,0.005303
29.19999999999999,0.00543
29.400000000000038,0.003093
29.600000000000023,0.0002249999999999
29.80000000000001,-0.005606
30.0,-0.0069730000000001
30.19999999999999,-0.0066410000000001
30.400000000000038,-0.007284
30.600000000000023,-0.0102170000000001
30.80000000000001,-0.009309
31.0,-0.010248
31.19999999999999,-0.0096769999999999
31.400000000000038,-0.0097119999999999
31.600000000000023,-0.0054849999999999
31.80000000000001,-0.001597
32.0,5.000000000032756e-06
32.19999999999999,-0.0015009999999999
32.400000000000034,-0.004923
32.60000000000002,-0.0108760000000001
32.80000000000001,-0.0154419999999999
33.0,-0.016934
33.19999999999999,-0.0191149999999999
33.400000000000034,-0.0174579999999999
33.60000000000002,-0.0139040000000001
33.80000000000001,-0.010834
34.0,-0.0100150000000001
34.19999999999999,-0.0098629999999999
34.400000000000034,-0.0101759999999999
34.60000000000002,-0.0111639999999999
34.80000000000001,-0.0145170000000001
35.0,-0.018291
35.19999999999999,-0.0204999999999999
35.400000000000034,-0.021198
35.60000000000002,-0.0211730000000001
35.80000000000001,-0.021643
36.0,-0.019247
36.19999999999999,-0.0151479999999999
36.400000000000034,-0.012683
36.60000000000002,-0.0115849999999999
36.80000000000001,-0.0114609999999999
37.0,-0.012799
37.19999999999999,-0.0144569999999999
37.400000000000034,-0.0151730000000001
37.60000000000002,-0.0134309999999999
37.80000000000001,-0.0113339999999999
38.0,-0.010156
38.19999999999999,-0.0098519999999999
38.400000000000034,-0.0089110000000001
38.60000000000002,-0.0086380000000001
38.80000000000001,-0.0088799999999999
39.0,-0.0087239999999999
39.19999999999999,-0.0079789999999999
39.400000000000034,-0.0077450000000001
39.60000000000002,-0.010407
39.80000000000001,-0.0095750000000001
40.0,-0.0086140000000001
40.19999999999999,-0.007578
40.400000000000034,-0.0109939999999999
40.60000000000002,-0.0143969999999999
40.80000000000001,-0.0172639999999999
41.0,-0.018726
41.19999999999999,-0.021595
41.400000000000034,-0.0194879999999999
41.60000000000002,-0.0125459999999999
41.80000000000001,-0.007093
42.0,-0.002804
42.19999999999999,0.0019359999999999
42.400000000000034,0.0062899999999999
42.60000000000002,0.0060419999999998
42.80000000000001,0.002712
43.0,-0.000771
43.19999999999999,-0.005322
43.400000000000034,-0.0111350000000001
43.60000000000002,-0.01529
43.80000000000001,-0.014996
44.0,-0.0156690000000001
44.19999999999999,-0.016623
44.400000000000034,-0.0135940000000001
44.60000000000002,-0.0097199999999999
44.80000000000001,-0.0073940000000001
45.0,-0.006269
45.19999999999999,-0.0062219999999999
45.400000000000034,-0.00808
45.60000000000002,-0.0100930000000001
45.80000000000001,-0.0104299999999999
46.0,-0.011433
46.19999999999999,-0.010661
46.400000000000034,-0.011721
46.60000000000002,-0.0161439999999999
46.80000000000001,-0.0229810000000001
47.0,-0.027311
47.19999999999999,-0.0285619999999999
47.400000000000034,-0.0287889999999999
47.60000000000002,-0.0255069999999999
47.80000000000001,-0.0232590000000001
48.0,-0.01871
48.19999999999999,-0.016672
48.400000000000034,-0.016197
48.60000000000002,-0.0163740000000001
48.80000000000001,-0.0154309999999999
49.0,-0.016467
49.19999999999999,-0.0164999999999999
49.400000000000034,-0.013681
49.60000000000002,-0.011382
49.80000000000001,-0.007551
50.0,-0.0019759999999999
50.19999999999999,0.0011099999999999
50.400000000000034,0.0009429999999999
50.60000000000002,-0.0029259999999999
50.80000000000001,-0.007309
51.0,-0.011333
51.19999999999999,-0.0131510000000001
51.400000000000034,-0.0104299999999999
51.60000000000002,-0.00774
51.80000000000001,-0.0062790000000001
52.0,-0.0087239999999999
52.19999999999999,-0.011095
52.400000000000034,-0.0162710000000001
52.60000000000002,-0.0152670000000001
52.80000000000001,-0.013265
53.0,-0.0115579999999999
53.19999999999999,-0.0116750000000001
53.400000000000034,-0.012067
53.60000000000002,-0.016863
53.80000000000001,-0.0225520000000001
54.0,-0.023193
54.19999999999999,-0.0221949999999999
54.400000000000034,-0.0231620000000001
54.60000000000002,-0.024318
54.80000000000001,-0.026202
55.0,-0.029014
55.19999999999999,-0.0310490000000001
55.400000000000034,-0.029897
55.60000000000002,-0.0259089999999999
55.80000000000001,-0.019311
56.0,-0.016134
56.19999999999999,-0.0158450000000001
56.400000000000034,-0.016442
56.60000000000002,-0.0193039999999999
56.80000000000001,-0.0235370000000001
57.0,-0.0254229999999999
57.19999999999999,-0.023571
57.400000000000034,-0.022426
57.60000000000002,-0.020486
57.80000000000001,-0.0186410000000001
58.0,-0.0173830000000001
58.19999999999999,-0.01946
58.400000000000034,-0.022397
58.60000000000002,-0.024127
58.80000000000001,-0.0252460000000001
59.0,-0.0260500000000001
59.19999999999999,-0.0268079999999999
59.400000000000034,-0.0246680000000001
59.60000000000002,-0.023868
59.80000000000001,-0.0238329999999999
60.0,-0.023711
60.19999999999999,-0.022175
60.400000000000034,-0.022574
60.60000000000002,-0.0223280000000001
60.80000000000001,-0.0223900000000001
61.0,-0.0235780000000001
61.19999999999999,-0.0239709999999999
61.400000000000034,-0.0235549999999999
61.60000000000002,-0.0211350000000001
61.80000000000001,-0.018731
62.00000000000006,-0.0141930000000001
62.19999999999999,-0.0116560000000001
62.400000000000034,-0.0087159999999999
62.599999999999966,-0.0080919999999999
62.80000000000001,-0.008663
63.00000000000006,-0.0103090000000001
63.19999999999999,-0.0125790000000001
63.400000000000034,-0.0144459999999999
63.599999999999966,-0.017319
63.80000000000001,-0.017921
64.00000000000006,-0.017185
64.19999999999999,-0.013495
64.40000000000003,-0.0145349999999999
64.59999999999997,-0.015279
64.80000000000001,-0.015781
65.00000000000006,-0.0184779999999999
65.19999999999999,-0.021411
65.40000000000003,-0.0207969999999999
65.59999999999997,-0.0185079999999999
65.80000000000001,-0.0193069999999999
66.00000000000006,-0.0195590000000001
66.19999999999999,-0.0194799999999999
66.40000000000003,-0.0204299999999999
66.59999999999997,-0.019978
66.80000000000001,-0.01696
67.00000000000006,-0.0143029999999999
67.19999999999999,-0.010642
67.40000000000003,-0.0073160000000001
67.59999999999997,-0.0085429999999999
67.80000000000001,-0.0125109999999999
68.00000000000006,-0.0133940000000001
68.19999999999999,-0.015322
68.40000000000003,-0.0156640000000001
68.59999999999997,-0.015921
68.80000000000001,-0.0129939999999999
69.00000000000006,-0.012661
69.19999999999999,-0.014701
69.40000000000003,-0.0165159999999999
69.59999999999997,-0.014526
69.80000000000001,-0.0112320000000001
70.00000000000006,-0.0113590000000001
70.19999999999999,-0.012572
70.40000000000003,-0.011309
70.59999999999997,-0.010221
70.80000000000001,-0.0133579999999999
71.00000000000006,-0.015306
71.19999999999999,-0.0146440000000001
71.40000000000003,-0.017349
71.59999999999997,-0.0186189999999999
71.80000000000001,-0.0179580000000001
72.00000000000006,-0.0146680000000001
72.19999999999999,-0.0140280000000001
72.40000000000003,-0.013886
72.59999999999997,-0.018636
72.80000000000001,-0.0224539999999999
73.00000000000006,-0.0278469999999999
73.19999999999999,-0.029255
73.40000000000003,-0.029878
73.59999999999997,-0.0274119999999999
73.80000000000001,-0.0277169999999999
74.00000000000006,-0.0278039999999999
74.19999999999999,-0.0276100000000001
74.40000000000003,-0.025913
74.59999999999997,-0.0253689999999999
74.80000000000001,-0.0236
75.00000000000006,-0.0214970000000001
75.19999999999999,-0.0183189999999999
75.40000000000003,-0.016467
75.59999999999997,-0.016947
75.80000000000001,-0.0185330000000001
76.00000000000006,-0.0180660000000001
76.19999999999999,-0.0197359999999999
76.40000000000003,-0.0200599999999999
76.59999999999997,-0.017965
76.80000000000001,-0.014842
77.00000000000006,-0.0152700000000001
77.19999999999999,-0.0173430000000001
77.40000000000003,-0.0220089999999999
77.59999999999997,-0.0257769999999999
77.80000000000001,-0.0288680000000001
78.00000000000006,-0.029339
78.19999999999999,-0.0277769999999999
78.40000000000003,-0.0248460000000001
78.59999999999997,-0.0225889999999999
78.80000000000001,-0.0213560000000001
79.00000000000006,-0.0216940000000001
79.19999999999999,-0.0238519999999999
79.40000000000003,-0.025249
79.59999999999997,-0.0261249999999999
79.80000000000001,-0.025179
80.00000000000006,-0.0247129999999999
80.19999999999999,-0.0215560000000001
80.40000000000003,-0.019873
80.59999999999997,-0.020466
80.80000000000001,-0.0222329999999999
81.00000000000006,-0.0226710000000001
81.19999999999999,-0.0243409999999999
81.40000000000003,-0.025365
81.59999999999997,-0.026537
81.80000000000001,-0.027079
82.00000000000006,-0.0261839999999999
82.19999999999999,-0.0276549999999999
82.40000000000003,-0.029536
82.59999999999997,-0.030405
82.80000000000001,-0.030024
83.00000000000006,-0.029511
83.19999999999999,-0.027703
83.40000000000003,-0.0269399999999999
83.59999999999997,-0.027104
83.80000000000001,-0.0283729999999999
84.00000000000006,-0.030612
84.19999999999999,-0.0315449999999999
84.40000000000003,-0.031679
84.59999999999997,-0.0279580000000001
84.80000000000001,-0.0271259999999999
85.00000000000006,-0.02654
85.19999999999999,-0.025738
85.40000000000003,-0.023274
85.59999999999997,-0.0239409999999999
85.80000000000001,-0.0238059999999999
86.00000000000006,-0.02315
86.19999999999999,-0.022197
86.40000000000003,-0.0242550000000001
86.59999999999997,-0.0253240000000001
86.80000000000001,-0.0235130000000001
87.00000000000006,-0.023295
87.19999999999999,-0.026483
87.40000000000003,-0.0274259999999999
87.59999999999997,-0.0281390000000001
87.80000000000001,-0.029938
88.00000000000006,-0.030774
88.19999999999999,-0.0295860000000001
88.40000000000003,-0.0278899999999999
88.59999999999997,-0.0268380000000001
88.80000000000001,-0.0266030000000001
89.00000000000006,-0.0254970000000001
89.19999999999999,-0.025047
89.40000000000003,-0.0255819999999999
89.59999999999997,-0.026423
89.80000000000001,-0.026051
90.00000000000006,-0.028027
90.2,-0.029654
90.40000000000003,-0.0304470000000001
90.59999999999997,-0.0288349999999999
90.8,-0.0270430000000001
91.00000000000006,-0.024478
91.2,-0.0224950000000001
91.40000000000003,-0.0208600000000001
91.59999999999997,-0.020825
91.8,-0.023487
92.00000000000006,-0.026259
92.2,-0.028737
92.40000000000003,-0.0303580000000001
92.59999999999997,-0.0323459999999999
92.8,-0.0335370000000001
93.00000000000006,-0.032782
93.2,-0.0330319999999999
93.40000000000003,-0.0334430000000001
93.59999999999997,-0.0331669999999999
93.8,-0.030774
94.00000000000006,-0.0300150000000001
94.2,-0.028863
94.40000000000003,-0.027139
94.59999999999997,-0.02546
94.8,-0.022186
95.00000000000006,-0.0199139999999999
95.2,-0.0175009999999999
95.40000000000003,-0.0169019999999999
95.59999999999997,-0.0182900000000001
95.8,-0.021368
96.00000000000006,-0.0241150000000001
96.2,-0.024515
96.40000000000003,-0.0249239999999999
96.59999999999997,-0.0222299999999999
96.8,-0.0222809999999999
97.00000000000006,-0.021646
97.2,-0.0226919999999999
97.40000000000003,-0.021614
97.59999999999997,-0.0227110000000001
97.8,-0.0232959999999999
98.00000000000006,-0.0254750000000001
98.2,-0.0256530000000001
98.40000000000003,-0.0252000000000001
98.59999999999997,-0.0253909999999999
98.8,-0.024982
99.00000000000006,-0.025047
99.2,-0.0263090000000001
99.40000000000003,-0.028205
99.59999999999997,-0.0283189999999999
99.8,-0.0276579999999999
100.00000000000006,-0.024661
100.2,-0.0202850000000001
100.40000000000003,-0.0199450000000001
100.59999999999997,-0.021068
100.8,-0.0230989999999999
101.00000000000006,-0.0230780000000001
101.2,-0.0254689999999999
101.40000000000003,-0.027025
101.59999999999997,-0.029039
101.8,-0.030537
102.00000000000006,-0.0342979999999999
102.2,-0.0357629999999999
102.40000000000003,-0.0350179999999999
102.59999999999997,-0.0315689999999999
102.8,-0.026699
103.00000000000006,-0.0219869999999999
103.2,-0.019775
103.40000000000003,-0.0183679999999999
103.59999999999997,-0.0199660000000001
103.8,-0.0248429999999999
104.00000000000006,-0.030467
104.2,-0.0342219999999999
104.40000000000003,-0.037044
104.59999999999997,-0.03742
104.8,-0.035209
105.00000000000006,-0.0317149999999999
105.2,-0.028915
105.40000000000003,-0.025422
105.59999999999997,-0.0237420000000001
105.8,-0.0232099999999999
106.00000000000006,-0.0246459999999999
106.2,-0.026326
106.40000000000003,-0.0275149999999999
106.59999999999997,-0.029249
106.8,-0.029562
107.00000000000006,-0.0274320000000001
107.2,-0.0249399999999999
107.40000000000003,-0.025867
107.59999999999997,-0.02574
107.8,-0.0249099999999999
108.00000000000006,-0.0239960000000001
108.2,-0.0247889999999999
108.40000000000003,-0.024596
108.59999999999997,-0.0245410000000001
108.8,-0.027074
109.00000000000006,-0.028575
109.2,-0.0274719999999999
109.40000000000003,-0.027063
109.59999999999997,-0.0269490000000001
109.8,-0.0265900000000001
110.00000000000006,-0.028442
110.2,-0.0322630000000001
110.40000000000003,-0.0342839999999999
110.59999999999997,-0.033827
110.8,-0.0334160000000001
111.00000000000006,-0.0339249999999999
111.2,-0.032864
111.40000000000003,-0.031374
111.59999999999997,-0.0323759999999999
111.8,-0.031911
112.00000000000006,-0.0294719999999999
112.2,-0.0278690000000001
112.40000000000003,-0.027954
112.59999999999997,-0.02888
112.8,-0.0307509999999999
113.00000000000006,-0.0334449999999999
113.2,-0.035493
113.40000000000003,-0.036472
113.59999999999997,-0.035398
113.8,-0.0324170000000001
114.00000000000006,-0.0289140000000001
114.2,-0.0252639999999999
114.40000000000003,-0.0218640000000001
114.59999999999997,-0.019398
114.8,-0.020413
115.00000000000006,-0.0203919999999999
115.2,-0.01966
115.40000000000003,-0.0184360000000001
115.59999999999997,-0.0171400000000001
115.8,-0.0141580000000001
116.00000000000006,-0.011022
116.2,-0.0116279999999999
116.40000000000003,-0.013694
116.59999999999997,-0.0161139999999999
116.8,-0.0164060000000001
117.00000000000006,-0.0184919999999999
117.2,-0.020205
117.40000000000003,-0.0220029999999999
117.59999999999997,-0.0231890000000001
117.8,-0.0244980000000001
118.00000000000006,-0.0267220000000001
118.2,-0.0265999999999999
118.40000000000003,-0.026934
118.59999999999997,-0.0258180000000001
118.8,-0.0264280000000001
119.00000000000006,-0.0272080000000001
119.2,-0.029292
119.40000000000003,-0.0280960000000001
119.59999999999997,-0.030256
119.8,-0.0322500000000001
120.00000000000006,-0.0323519999999999
120.2,-0.032305
120.40000000000003,-0.03519
120.59999999999997,-0.035298
120.8,-0.0342630000000001
121.00000000000006,-0.0345470000000001
121.2,-0.0346619999999999
121.40000000000003,-0.033473
121.59999999999997,-0.0335739999999999
121.8,-0.0332780000000001
122.00000000000006,-0.0331399999999999
122.2,-0.0330719999999999
122.40000000000003,-0.0340530000000001
122.59999999999997,-0.0335339999999999
122.8,-0.034923
123.00000000000006,-0.0339869999999999
123.2,-0.032472
123.40000000000003,-0.0309760000000001
123.59999999999997,-0.0302379999999999
123.8,-0.0296229999999999
124.00000000000006,-0.0314700000000001
124.2,-0.032817
124.40000000000003,-0.032961
124.59999999999997,-0.032766
124.8,-0.033975
125.00000000000006,-0.0336720000000001
125.2,-0.033903
125.40000000000003,-0.0332909999999999
125.59999999999997,-0.031895
125.8,-0.0292620000000001
126.00000000000006,-0.0291319999999999
126.2,-0.0298979999999999
126.40000000000003,-0.0321820000000001
126.59999999999997,-0.0339880000000001
126.8,-0.0345919999999999
127.00000000000006,-0.0322299999999999
127.2,-0.031487
127.40000000000003,-0.030815
127.59999999999997,-0.032321
127.8,-0.0330350000000001
128.00000000000006,-0.0342169999999999
128.2,-0.0325159999999999
128.40000000000003,-0.030893
128.59999999999997,-0.0285299999999999
128.8,-0.0284429999999999
129.00000000000006,-0.028607
129.2,-0.029727
129.40000000000003,-0.0309429999999999
129.59999999999997,-0.0315130000000001
129.8,-0.0328730000000001
130.00000000000006,-0.033285
130.2,-0.0345079999999999
130.40000000000003,-0.035636
130.59999999999997,-0.037665
130.8,-0.0355389999999999
131.00000000000006,-0.0345980000000001
131.2,-0.033894
131.40000000000003,-0.0315290000000001
131.59999999999997,-0.0281439999999999
131.8,-0.028145
132.00000000000006,-0.0292529999999999
132.2,-0.0294609999999999
132.40000000000003,-0.029719
132.59999999999997,-0.0312369999999999
132.8,-0.030985
133.00000000000006,-0.029724
133.2,-0.0284999999999999
133.40000000000003,-0.027479
133.59999999999997,-0.026272
133.8,-0.0258739999999999
134.00000000000006,-0.0281839999999999
134.2,-0.0312620000000001
134.40000000000003,-0.0343519999999999
134.59999999999997,-0.0350639999999999
134.8,-0.0364790000000001
135.00000000000006,-0.035554
135.2,-0.032259
135.40000000000003,-0.0298169999999999
135.59999999999997,-0.0305980000000001
135.8,-0.0300009999999999
136.00000000000006,-0.029211
136.2,-0.0290270000000001
136.40000000000003,-0.028907
136.59999999999997,-0.0277819999999999
136.8,-0.02712
137.00000000000006,-0.0258340000000001
137.2,-0.02553
137.40000000000003,-0.027519
137.59999999999997,-0.0277530000000001
137.8,-0.0270760000000001
138.00000000000006,-0.0275929999999999
138.2,-0.0295579999999999
138.40000000000003,-0.0297629999999999
138.59999999999997,-0.0307809999999999
138.8,-0.032429
139.00000000000006,-0.0314419999999999
139.2,-0.0294940000000001
139.40000000000003,-0.025573
139.59999999999997,-0.0226140000000001
139.8,-0.0213350000000001
140.00000000000006,-0.0223250000000001
140.2,-0.0213860000000001
140.40000000000003,-0.0229749999999999
140.59999999999997,-0.0245619999999999
140.8,-0.025525
141.00000000000006,-0.0256149999999999
141.2,-0.02828
141.40000000000003,-0.0294639999999999
141.59999999999997,-0.0299469999999999
141.8,-0.0293829999999999
142.00000000000006,-0.03112
142.2,-0.031743
142.40000000000003,-0.0303919999999999
142.59999999999997,-0.0294689999999999
142.8,-0.0298309999999999
143.00000000000006,-0.029543
143.2,-0.0288140000000001
143.40000000000003,-0.0325200000000001
143.59999999999997,-0.0353749999999999
143.8,-0.037641
144.00000000000006,-0.0387840000000001
144.2,-0.03902
144.40000000000003,-0.0364059999999999
144.59999999999997,-0.0337009999999999
144.8,-0.0324889999999999
145.00000000000006,-0.03123
145.2,-0.0305619999999999
145.40000000000003,-0.0296560000000001
145.59999999999997,-0.0316940000000001
145.8,-0.0300960000000001
146.00000000000006,-0.030305
146.2,-0.0292259999999999
146.40000000000003,-0.0296089999999999
146.59999999999997,-0.0269099999999999
146.8,-0.0269989999999999
147.00000000000006,-0.027068
147.2,-0.030091
147.40000000000003,-0.034078
147.59999999999997,-0.0385170000000001
147.8,-0.0414559999999999
148.00000000000006,-0.0408049999999999
148.2,-0.0379420000000001
148.40000000000003,-0.0336279999999999
148.59999999999997,-0.0305680000000001
148.8,-0.0292289999999999
149.00000000000006,-0.030181
149.2,-0.03255
149.40000000000003,-0.0342900000000001
149.59999999999997,-0.0333730000000001
149.8,-0.0321610000000001
150.00000000000006,-0.0310829999999999
150.2,-0.0299059999999999
150.40000000000003,-0.0305779999999999
150.59999999999997,-0.0327060000000001
150.8,-0.0353350000000001
151.00000000000006,-0.0374609999999999
151.2,-0.0390479999999999
151.40000000000003,-0.0385200000000001
151.59999999999997,-0.0379420000000001
151.8,-0.0364520000000001
152.00000000000006,-0.0357149999999999
152.2,-0.0352620000000001
152.40000000000003,-0.036731
152.59999999999997,-0.036561
152.8,-0.0354050000000001
153.00000000000006,-0.0349680000000001
153.2,-0.0339599999999999
153.40000000000003,-0.031069
153.59999999999997,-0.03099
153.8,-0.031479
154.00000000000006,-0.0315510000000001
154.2,-0.0316499999999999
154.40000000000003,-0.0340850000000001
154.59999999999997,-0.0357480000000001
154.8,-0.0354000000000001
155.00000000000006,-0.0317880000000001
155.2,-0.030548
155.40000000000003,-0.028224
155.59999999999997,-0.0267969999999999
155.8,-0.027319
156.00000000000006,-0.0302569999999999
156.2,-0.029849
156.40000000000003,-0.030823
156.59999999999997,-0.0320690000000001
156.8,-0.0323120000000001
157.00000000000006,-0.0316469999999999
157.2,-0.031366
157.40000000000003,-0.028593
157.59999999999997,-0.0250239999999999
157.8,-0.0252270000000001
158.00000000000006,-0.0275560000000001
158.2,-0.028499
158.40000000000003,-0.031646
158.59999999999997,-0.0347490000000001
158.8,-0.0346319999999999
159.00000000000006,-0.0306870000000001
159.2,-0.0301299999999999
159.40000000000003,-0.0294499999999999
159.59999999999997,-0.0307490000000001
159.8,-0.031636
160.00000000000006,-0.0348380000000001
160.2,-0.035603
160.40000000000003,-0.0355050000000001
160.59999999999997,-0.034872
160.8,-0.036548
161.00000000000006,-0.0373080000000001
161.2,-0.0385900000000001
161.40000000000003,-0.039493
161.59999999999997,-0.039169
161.8,-0.03569
162.00000000000006,-0.0321899999999999
162.2,-0.0320610000000001
162.40000000000003,-0.0319420000000001
162.59999999999997,-0.0305280000000001
162.8,-0.032205
163.00000000000006,-0.0362390000000001
163.2,-0.0385280000000001
163.40000000000003,-0.0402310000000001
163.59999999999997,-0.0424470000000001
163.8,-0.042132
164.00000000000006,-0.0401519999999999
164.2,-0.0359469999999999
164.40000000000003,-0.0334160000000001
164.59999999999997,-0.0319500000000001
164.8,-0.0322690000000001
165.00000000000006,-0.0331989999999999
165.2,-0.0357739999999999
165.40000000000003,-0.0380469999999999
165.59999999999997,-0.039886
165.8,-0.040019
166.00000000000006,-0.039879
166.2,-0.0383580000000001
166.40000000000003,-0.037787
166.59999999999997,-0.038245
166.8,-0.03942
167.00000000000006,-0.0407269999999999
167.2,-0.041114
167.40000000000003,-0.040864
167.59999999999997,-0.0404459999999999
167.8,-0.037862
168.00000000000006,-0.033968
168.2,-0.0316290000000001
168.40000000000003,-0.02977
168.59999999999997,-0.0288349999999999
168.8,-0.0293369999999999
169.00000000000006,-0.0319640000000001
169.2,-0.0352609999999999
169.40000000000003,-0.036256
169.59999999999997,-0.034774
169.8,-0.032799
170.00000000000006,-0.0307870000000001
170.2,-0.028019
170.40000000000003,-0.026067
170.59999999999997,-0.024701
170.8,-0.027147
171.00000000000006,-0.028243
171.2,-0.030645
171.40000000000003,-0.034156
171.59999999999997,-0.038
171.8,-0.040472
172.00000000000006,-0.0426509999999999
172.2,-0.043441
172.40000000000003,-0.04291
172.59999999999997,-0.0405520000000001
172.8,-0.0379420000000001
173.00000000000006,-0.0372719999999999
173.2,-0.036756
173.40000000000003,-0.0371620000000001
173.59999999999997,-0.0388840000000001
173.8,-0.0388669999999999
174.00000000000006,-0.039001
174.2,-0.0390190000000001
174.40000000000003,-0.0380180000000001
174.59999999999997,-0.036192
174.8,-0.0368239999999999
175.00000000000006,-0.034275
175.2,-0.031271
175.40000000000003,-0.0292689999999999
175.59999999999997,-0.029071
175.8,-0.0274370000000001
176.00000000000006,-0.026933
176.2,-0.027711
176.40000000000003,-0.029671
176.59999999999997,-0.031689
176.8,-0.0344390000000001
177.00000000000006,-0.0370179999999999
177.2,-0.0391399999999999
177.40000000000003,-0.039015
177.59999999999997,-0.037851
177.8,-0.035876
178.00000000000006,-0.0344090000000001
178.2,-0.0310000000000001
178.40000000000003,-0.028553
178.59999999999997,-0.0271069999999999
178.8,-0.025964
179.00000000000006,-0.026585
179.2,-0.0309030000000001
179.40000000000003,-0.0356469999999999
179.59999999999997,-0.0376210000000001
179.8,-0.038237
180.00000000000006,-0.0374289999999999
180.2,-0.035606
180.40000000000003,-0.032235
180.6,-0.029881
180.8,-0.028853
181.00000000000009,-0.0270319999999999
181.2,-0.0254529999999999
181.40000000000003,-0.027238
181.6,-0.0300040000000001
181.8,-0.0319279999999999
182.00000000000009,-0.0337659999999999
182.2,-0.0361500000000001
182.40000000000003,-0.036856
182.6,-0.0386649999999999
182.8,-0.039053
183.00000000000009,-0.040499
183.2,-0.040094
183.40000000000003,-0.037298
183.6,-0.0318420000000001
183.8,-0.0294499999999999
184.00000000000009,-0.0285790000000001
184.2,-0.0280770000000001
184.40000000000003,-0.028126
184.6,-0.030925
184.8,-0.0341949999999999
185.00000000000009,-0.0361420000000001
185.2,-0.036186
185.40000000000003,-0.0380739999999999
185.6,-0.039636
185.8,-0.040799
186.00000000000009,-0.0402740000000001
186.2,-0.0403979999999999
186.40000000000003,-0.0397549999999999
186.6,-0.037781
186.8,-0.0351719999999999
187.00000000000009,-0.0327589999999999
187.2,-0.0306280000000001
187.40000000000003,-0.0292430000000001
187.6,-0.0306189999999999
187.8,-0.0324600000000001
188.00000000000009,-0.0356510000000001
188.2,-0.038321
188.40000000000003,-0.0401979999999999
188.6,-0.0406239999999999
188.8,-0.0397929999999999
189.00000000000009,-0.0387859999999999
189.2,-0.0394480000000001
189.40000000000003,-0.0405189999999999
189.6,-0.0397929999999999
189.8,-0.0405870000000001
190.00000000000009,-0.0407250000000001
190.2,-0.0410749999999999
190.40000000000003,-0.0386330000000001
190.6,-0.0384869999999999
190.8,-0.036856
191.00000000000009,-0.0353989999999999
191.2,-0.0333700000000001
191.40000000000003,-0.0351780000000001
191.6,-0.036205
191.8,-0.0357629999999999
192.00000000000009,-0.0346699999999999
192.2,-0.0348140000000001
192.40000000000003,-0.033203
192.6,-0.0326330000000001
192.8,-0.0332989999999999
193.00000000000009,-0.0353810000000001
193.2,-0.0358359999999999
193.40000000000003,-0.0365330000000001
193.6,-0.0364170000000001
193.8,-0.0373259999999999
194.00000000000009,-0.0384440000000001
194.2,-0.0388159999999999
194.40000000000003,-0.041449
194.6,-0.044014
194.8,-0.0452190000000001
195.00000000000009,-0.0455639999999999
195.2,-0.0450140000000001
195.40000000000003,-0.0389859999999999
195.6,-0.0327239999999999
195.8,-0.029633
196.00000000000009,-0.029039
196.2,-0.030858
196.40000000000003,-0.0342070000000001
196.6,-0.0355400000000001
196.8,-0.036661
197.00000000000009,-0.0350270000000001
197.2,-0.0347939999999999
197.40000000000003,-0.03665
197.6,-0.0401009999999999
197.8,-0.040918
198.00000000000009,-0.0404010000000001
198.2,-0.0394609999999999
198.40000000000003,-0.038761
198.6,-0.0370840000000001
198.8,-0.0355849999999999
199.00000000000009,-0.0362109999999999
199.2,-0.0367699999999999
199.40000000000003,-0.0369380000000001
199.6,-0.0375849999999999
199.8,-0.0395579999999999
200.00000000000009,-0.040729
200.2,-0.0404649999999999
200.40000000000003,-0.0395020000000001
200.6,-0.0378469999999999
200.8,-0.0355370000000001
201.00000000000009,-0.0341310000000001
201.2,-0.03428
201.40000000000003,-0.034561
201.6,-0.035266
201.8,-0.036008
202.00000000000009,-0.0362949999999999
202.2,-0.035762
202.40000000000003,-0.034497
202.6,-0.0328699999999999
202.8,-0.029921
203.00000000000009,-0.027884
203.2,-0.0264330000000001
203.40000000000003,-0.0263269999999999
203.6,-0.0273689999999999
203.8,-0.02716
204.00000000000009,-0.027457
204.2,-0.027627
204.40000000000003,-0.0297370000000001
204.6,-0.030421
204.8,-0.0343500000000001
205.00000000000009,-0.0365679999999999
205.2,-0.039077
205.40000000000003,-0.037616
205.6,-0.036297
205.8,-0.0343660000000001
206.00000000000009,-0.0332430000000001
206.2,-0.031814
206.40000000000003,-0.033128
206.6,-0.0367520000000001
206.8,-0.0406729999999999
207.00000000000009,-0.04336
207.2,-0.043336
207.40000000000003,-0.041859
207.6,-0.0390190000000001
207.8,-0.034559
208.00000000000009,-0.0315020000000001
208.2,-0.032777
208.40000000000003,-0.034801
208.6,-0.036667
208.8,-0.037366
209.00000000000009,-0.0365060000000001
209.2,-0.0353190000000001
209.40000000000003,-0.0334020000000001
209.6,-0.033622
209.8,-0.0366870000000001
210.00000000000009,-0.039687
210.2,-0.040877
210.40000000000003,-0.041638
210.6,-0.039835
210.8,-0.036224
211.00000000000009,-0.0347319999999999
211.2,-0.035433
211.40000000000003,-0.037168
211.6,-0.0384200000000001
211.8,-0.040219
212.00000000000009,-0.039252
212.2,-0.036829
212.40000000000003,-0.034329
212.6,-0.0317670000000001
212.8,-0.031676
213.00000000000009,-0.032907
213.2,-0.0327889999999999
213.40000000000003,-0.03278
213.6,-0.035786
213.8,-0.0372449999999999
214.00000000000009,-0.038499
214.2,-0.0412570000000001
214.40000000000003,-0.044105
214.6,-0.042586
214.8,-0.0407440000000001
215.00000000000009,-0.04021
215.2,-0.0386820000000001
215.40000000000003,-0.0370190000000001
215.6,-0.038656
215.8,-0.0403569999999999
216.00000000000009,-0.0409190000000001
216.2,-0.0406200000000001
216.40000000000003,-0.039611
216.6,-0.039476
216.8,-0.03983
217.00000000000009,-0.040713
217.2,-0.0417199999999999
217.40000000000003,-0.0450079999999999
217.6,-0.046267
217.8,-0.0465900000000001
218.00000000000009,-0.047142
218.2,-0.0485619999999999
218.40000000000003,-0.047862
218.6,-0.046272
218.8,-0.041695
219.00000000000009,-0.036386
219.2,-0.0323789999999999
219.40000000000003,-0.03089
219.6,-0.0306159999999999
219.8,-0.0317039999999999
220.00000000000009,-0.0338009999999999
220.2,-0.036737
220.40000000000003,-0.03709
220.6,-0.037916
220.8,-0.040818
221.00000000000009,-0.0412669999999999
221.2,-0.040016
221.40000000000003,-0.038529
221.6,-0.0367049999999999
221.8,-0.034038
222.00000000000009,-0.0355290000000001
222.2,-0.03692
222.40000000000003,-0.039123
222.6,-0.0406630000000001
222.8,-0.041814
223.00000000000009,-0.0405200000000001
223.2,-0.038853
223.40000000000003,-0.038564
223.6,-0.039924
223.8,-0.0418260000000001
224.00000000000009,-0.043719
224.2,-0.046615
224.40000000000003,-0.045215
224.6,-0.042823
224.8,-0.0399420000000001
225.00000000000009,-0.0384980000000001
225.2,-0.035492
225.40000000000003,-0.035727
225.6,-0.0371859999999999
225.8,-0.0380530000000001
226.00000000000009,-0.038586
226.2,-0.039684
226.40000000000003,-0.0403569999999999
226.6,-0.0394419999999999
226.8,-0.040572
227.00000000000009,-0.0419610000000001
227.2,-0.0434970000000001
227.40000000000003,-0.044372
227.6,-0.0452989999999999
227.8,-0.044459
228.00000000000009,-0.0414130000000001
228.2,-0.0384470000000001
228.40000000000003,-0.0352909999999999
228.6,-0.033236
228.8,-0.034202
229.00000000000009,-0.0375560000000001
229.2,-0.039012
229.40000000000003,-0.0396469999999999
229.6,-0.0385299999999999
229.8,-0.0367790000000001
230.00000000000009,-0.035508
230.2,-0.0357610000000001
230.40000000000003,-0.0366269999999999
230.6,-0.0387520000000001
230.8,-0.0394829999999999
231.00000000000009,-0.037724
231.2,-0.036874
231.40000000000003,-0.038272
231.6,-0.040016
231.8,-0.041568
232.00000000000009,-0.041668
232.2,-0.0417769999999999
232.40000000000003,-0.0411110000000001
232.6,-0.0392270000000001
232.8,-0.039212
233.00000000000009,-0.0391239999999999
233.2,-0.0396050000000001
233.40000000000003,-0.0404280000000001
233.6,-0.0428509999999999
233.8,-0.042899
234.00000000000009,-0.042766
234.2,-0.041959
234.40000000000003,-0.04108
234.6,-0.03749
234.8,-0.034423
235.00000000000009,-0.035484
235.2,-0.035822
235.40000000000003,-0.0360199999999999
235.6,-0.0386010000000001
235.8,-0.0425390000000001
236.00000000000009,-0.043736
236.2,-0.0461949999999999
236.40000000000003,-0.0475240000000001
236.6,-0.047288
236.8,-0.045209
237.00000000000009,-0.043447
237.2,-0.040526
237.40000000000003,-0.0364079999999999
237.6,-0.0345200000000001
237.8,-0.0334149999999999
238.00000000000009,-0.0340040000000001
238.2,-0.0344120000000001
238.40000000000003,-0.0365569999999999
238.6,-0.035657
238.8,-0.0351449999999999
239.00000000000009,-0.034496
239.2,-0.0344189999999999
239.40000000000003,-0.034324
239.6,-0.034928
239.8,-0.035039
240.00000000000009,-0.0350380000000001
240.2,-0.036534
240.40000000000003,-0.037257
240.6,-0.0402850000000001
240.8,-0.0425949999999999
241.00000000000009,-0.0429250000000001
241.2,-0.039938
241.40000000000003,-0.0365489999999999
241.6,-0.0337260000000001
241.8,-0.0317
242.00000000000009,-0.0312529999999999
242.2,-0.031905
242.40000000000003,-0.0346269999999999
242.6,-0.0361839999999999
242.8,-0.036164
243.00000000000009,-0.036378
243.2,-0.037222
243.40000000000003,-0.0376240000000001
243.6,-0.0377370000000001
243.8,-0.0390380000000001
244.00000000000009,-0.038891
244.2,-0.0384310000000001
244.40000000000003,-0.0366790000000001
244.6,-0.036424
244.8,-0.0388110000000001
245.00000000000009,-0.038723
245.2,-0.0385440000000001
245.40000000000003,-0.0399800000000001
245.6,-0.041943
245.8,-0.041425
246.00000000000009,-0.044472
246.2,-0.0475229999999999
246.40000000000003,-0.0509479999999999
246.6,-0.0515890000000001
246.8,-0.0517130000000001
247.00000000000009,-0.0499499999999999
247.2,-0.047965
247.40000000000003,-0.0435970000000001
247.6,-0.041382
247.8,-0.0403120000000001
248.00000000000009,-0.041365
248.2,-0.041401
248.40000000000003,-0.041789
248.6,-0.039401
248.8,-0.037852
249.00000000000009,-0.0353270000000001
249.2,-0.034626
249.40000000000003,-0.035759
249.6,-0.040245
249.8,-0.043981
250.00000000000009,-0.047106
250.2,-0.048086
250.40000000000003,-0.047816
250.6,-0.0452589999999999
250.8,-0.0419199999999999
251.00000000000009,-0.041889
251.2,-0.044318
251.40000000000003,-0.0470570000000001
251.6,-0.048548
251.8,-0.049177
252.00000000000009,-0.0476309999999999
252.2,-0.043684
252.40000000000003,-0.040699
252.6,-0.037385
252.8,-0.037047
253.00000000000009,-0.0389760000000001
253.2,-0.041948
253.40000000000003,-0.0429939999999999
253.6,-0.0434540000000001
253.8,-0.0420279999999999
254.00000000000009,-0.038742
254.2,-0.035687
254.40000000000003,-0.034289
254.6,-0.0328950000000001
254.8,-0.032979
255.00000000000009,-0.0342900000000001
255.2,-0.036208
255.40000000000003,-0.038321
255.6,-0.0430479999999999
255.8,-0.0457370000000001
256.00000000000006,-0.046262
256.2,-0.0449539999999999
256.40000000000003,-0.042594
256.6,-0.038958
256.8,-0.036391
257.00000000000006,-0.0355700000000001
257.2,-0.036316
257.40000000000003,-0.0365360000000001
257.6,-0.037652
257.8,-0.0390859999999999
258.00000000000006,-0.038963
258.2,-0.0390920000000001
258.40000000000003,-0.0373559999999999
258.6,-0.035832
258.8,-0.035271
259.00000000000006,-0.036091
259.2,-0.036386
259.40000000000003,-0.0379340000000001
259.6,-0.039878
259.8,-0.041177
260.00000000000006,-0.0408920000000001
260.2,-0.040143
260.40000000000003,-0.0409110000000001
260.6,-0.0411639999999999
260.8,-0.0410639999999999
261.00000000000006,-0.0413879999999999
261.2,-0.042448
261.40000000000003,-0.0413959999999999
261.6,-0.04152
261.8,-0.0420359999999999
262.00000000000006,-0.043906
262.2,-0.0430490000000001
262.40000000000003,-0.0425489999999999
262.6,-0.0391890000000001
262.8,-0.0362569999999999
263.00000000000006,-0.031665
263.2,-0.0307889999999999
263.40000000000003,-0.0328250000000001
263.6,-0.0340329999999999
263.8,-0.0333890000000001
264.00000000000006,-0.034855
264.2,-0.035814
264.40000000000003,-0.0361470000000001
264.6,-0.038958
264.8,-0.0429520000000001
265.00000000000006,-0.043549
265.2,-0.0437769999999999
265.40000000000003,-0.0434989999999999
265.6,-0.0432780000000001
265.8,-0.042904
266.00000000000006,-0.042737
266.2,-0.0429619999999999
266.40000000000003,-0.042658
266.6,-0.043676
266.8,-0.0427649999999999
267.00000000000006,-0.0426429999999999
267.2,-0.042005
267.40000000000003,-0.0417290000000001
267.6,-0.0404580000000001
267.8,-0.0410190000000001
268.00000000000006,-0.042982
268.2,-0.044944
268.40000000000003,-0.047215
268.6,-0.0463169999999999
268.8,-0.0440850000000001
269.00000000000006,-0.0421979999999999
269.2,-0.0398769999999999
269.40000000000003,-0.0388939999999999
269.6,-0.040931
269.8,-0.045762
270.00000000000006,-0.048802
270.2,-0.0514190000000001
270.40000000000003,-0.0485710000000001
270.6,-0.045662
270.8,-0.0412080000000001
271.00000000000006,-0.0378020000000001
271.2,-0.0361930000000001
271.40000000000003,-0.0397750000000001
271.6,-0.0419739999999999
271.8,-0.0426980000000001
272.00000000000006,-0.041967
272.2,-0.0402200000000001
272.40000000000003,-0.0372399999999999
272.6,-0.0366060000000001
272.8,-0.037053
273.00000000000006,-0.0396199999999999
273.2,-0.041906
273.40000000000003,-0.04366
273.6,-0.0431000000000001
273.8,-0.040964
274.00000000000006,-0.039088
274.2,-0.0411259999999999
274.40000000000003,-0.0425710000000001
274.6,-0.0445029999999999
274.8,-0.0458610000000001
275.00000000000006,-0.048221
275.2,-0.046245
275.40000000000003,-0.0472369999999999
275.6,-0.0472289999999999
275.8,-0.0483580000000001
276.00000000000006,-0.046448
276.2,-0.044577
276.40000000000003,-0.0393540000000001
276.6,-0.0374339999999999
276.8,-0.039921
277.00000000000006,-0.0413879999999999
277.2,-0.0433920000000001
277.40000000000003,-0.0471460000000001
277.6,-0.049115
277.8,-0.046766
278.00000000000006,-0.0455940000000001
278.2,-0.044456
278.40000000000003,-0.040912
278.6,-0.036888
278.8,-0.036521
279.00000000000006,-0.0371570000000001
279.2,-0.0399039999999999
279.40000000000003,-0.0436
279.6,-0.0472639999999999
279.8,-0.047762
280.00000000000006,-0.0491540000000001
280.2,-0.0485120000000001
280.40000000000003,-0.0471989999999999
280.6,-0.0458819999999999
280.8,-0.044367
281.00000000000006,-0.0421979999999999
281.2,-0.040626
281.40000000000003,-0.0412190000000001
281.6,-0.0407459999999999
281.8,-0.040504
282.00000000000006,-0.0388870000000001
282.2,-0.0382139999999999
282.40000000000003,-0.0375780000000001
282.6,-0.0395799999999999
282.8,-0.0426060000000001
283.00000000000006,-0.0449239999999999
283.2,-0.0458800000000001
283.40000000000003,-0.0459260000000001
283.6,-0.045798
283.8,-0.0440260000000001
284.00000000000006,-0.0440929999999999
284.2,-0.0436579999999999
284.40000000000003,-0.0444569999999999
284.6,-0.0444740000000001
284.8,-0.0458629999999999
285.00000000000006,-0.046661
285.2,-0.0485200000000001
285.40000000000003,-0.049932
285.6,-0.0522819999999999
285.8,-0.0529920000000001
286.00000000000006,-0.05379
286.2,-0.0530650000000001
286.40000000000003,-0.0527079999999999
286.6,-0.0523200000000001
286.8,-0.0525580000000001
287.00000000000006,-0.05319
287.2,-0.053144
287.40000000000003,-0.051563
287.6,-0.0478610000000001
287.8,-0.0452639999999999
288.00000000000006,-0.043004
288.2,-0.042442
288.40000000000003,-0.0422550000000001
288.6,-0.0423280000000001
288.8,-0.04231
289.00000000000006,-0.042702
289.2,-0.0419119999999999
289.40000000000003,-0.044138
289.6,-0.046216
289.8,-0.046931
290.00000000000006,-0.0454780000000001
290.2,-0.045905
290.40000000000003,-0.044
290.6,-0.0421930000000001
290.8,-0.0406060000000001
291.00000000000006,-0.0413400000000001
291.2,-0.039797
291.40000000000003,-0.0371490000000001
291.6,-0.037239
291.8,-0.0382930000000001
292.00000000000006,-0.038607
292.2,-0.0419469999999999
292.40000000000003,-0.046448
292.6,-0.04855
292.8,-0.0487600000000001
293.00000000000006,-0.048175
293.2,-0.0463409999999999
293.40000000000003,-0.045058
293.6,-0.043884
293.8,-0.04298
294.00000000000006,-0.042313
294.2,-0.0418849999999999
294.40000000000003,-0.0403390000000001
294.6,-0.037962
294.8,-0.037835
295.00000000000006,-0.040818
295.2,-0.0434510000000001
295.40000000000003,-0.0433780000000001
295.6,-0.044748
295.8,-0.0462009999999999
296.00000000000006,-0.0466820000000001
296.2,-0.044769
296.40000000000003,-0.0444809999999999
296.6,-0.0431970000000001
296.8,-0.042629
297.00000000000006,-0.0393559999999999
297.2,-0.040432
297.40000000000003,-0.043822
297.6,-0.0482219999999999
297.8,-0.049401
298.00000000000006,-0.0486790000000001
298.2,-0.0461009999999999
298.40000000000003,-0.044105
298.6,-0.0428570000000001
298.8,-0.043242
299.00000000000006,-0.0435069999999999
299.2,-0.0429559999999999
299.40000000000003,-0.040102
299.6,-0.0373959999999999
299.7999999999999,-0.036604
299.99999999999994,-0.0356040000000001
300.1999999999999,-0.0325810000000001
300.3999999999999,-0.029441
300.6,-0.0284699999999999
300.7999999999999,-0.027492
300.99999999999994,-0.027611
301.1999999999999,-0.026296
301.3999999999999,-0.0267939999999999
301.6,-0.0257899999999999
301.7999999999999,-0.0258340000000001
301.99999999999994,-0.026143
302.1999999999999,-0.0283900000000001
302.3999999999999,-0.0299260000000001
302.6,-0.031897
302.7999999999999,-0.0348860000000001
302.99999999999994,-0.0360139999999999
303.1999999999999,-0.0359960000000001
303.3999999999999,-0.035168
303.6,-0.0353160000000001
303.7999999999999,-0.0346110000000001
303.99999999999994,-0.034861
304.1999999999999,-0.0356800000000001
304.3999999999999,-0.0368669999999999
304.6,-0.0380519999999999
304.7999999999999,-0.0392449999999999
304.99999999999994,-0.039627
305.1999999999999,-0.0400880000000001
305.3999999999999,-0.0417590000000001
305.6,-0.0432860000000001
305.7999999999999,-0.0429479999999999
305.99999999999994,-0.043066
306.1999999999999,-0.0441470000000001
306.3999999999999,-0.0421260000000001
306.6,-0.0402420000000001
306.7999999999999,-0.038909
306.99999999999994,-0.039876
307.1999999999999,-0.0371620000000001
307.3999999999999,-0.0370300000000001
307.6,-0.0365980000000001
307.7999999999999,-0.038156
307.99999999999994,-0.0367160000000001
308.1999999999999,-0.0364870000000001
308.3999999999999,-0.0360150000000001
308.6,-0.036194
308.7999999999999,-0.034375
308.99999999999994,-0.032966
309.1999999999999,-0.032664
309.3999999999999,-0.035792
309.6,-0.035773
309.7999999999999,-0.0364110000000001
309.99999999999994,-0.036321
310.1999999999999,-0.035921
310.3999999999999,-0.0332450000000001
310.6,-0.034151
310.7999999999999,-0.034221
310.99999999999994,-0.033846
311.1999999999999,-0.036952
311.3999999999999,-0.039549
311.6,-0.0394830000000001
311.7999999999999,-0.040146
311.99999999999994,-0.042302
312.1999999999999,-0.0399800000000001
312.3999999999999,-0.0358450000000001
312.6,-0.0325090000000001
312.7999999999999,-0.0312590000000001
312.99999999999994,-0.031967
313.1999999999999,-0.034683
313.3999999999999,-0.037757
313.6,-0.043406
313.7999999999999,-0.0451270000000001
313.99999999999994,-0.0432190000000001
314.1999999999999,-0.0379709999999999
314.3999999999999,-0.0350540000000001
314.6,-0.031061
314.7999999999999,-0.030661
314.99999999999994,-0.033741
315.1999999999999,-0.039006
315.3999999999999,-0.040686
315.6,-0.040127
315.7999999999999,-0.0371320000000001
315.99999999999994,-0.0334210000000001
316.1999999999999,-0.031643
316.3999999999999,-0.031838
316.6,-0.032
316.7999999999999,-0.0328490000000001
316.99999999999994,-0.0344349999999999
317.1999999999999,-0.0355210000000001
317.3999999999999,-0.0364470000000001
317.6,-0.0385030000000001
317.7999999999999,-0.039808
317.99999999999994,-0.0396469999999999
318.1999999999999,-0.0396929999999999
318.3999999999999,-0.041363
318.6,-0.0427710000000001
318.7999999999999,-0.0429680000000001
318.99999999999994,-0.0410220000000001
319.1999999999999,-0.0381820000000001
319.3999999999999,-0.0356320000000001
319.6,-0.033589
319.7999999999999,-0.034324
319.99999999999994,-0.037892
320.1999999999999,-0.0398709999999999
320.3999999999999,-0.04061
320.6,-0.040461
320.7999999999999,-0.042022
320.99999999999994,-0.041619
321.1999999999999,-0.040645
321.3999999999999,-0.0390300000000001
321.6,-0.0403760000000001
321.7999999999999,-0.0402630000000001
321.99999999999994,-0.0403470000000001
322.1999999999999,-0.0393810000000001
322.3999999999999,-0.039471
322.6,-0.0372160000000001
322.7999999999999,-0.0345440000000001
322.99999999999994,-0.0348540000000001
323.1999999999999,-0.0384630000000001
323.3999999999999,-0.041276
323.6,-0.0429650000000001
323.7999999999999,-0.0434530000000001
323.99999999999994,-0.0426090000000001
324.1999999999999,-0.040658
324.3999999999999,-0.039833
324.6,-0.0388939999999999
324.7999999999999,-0.0393149999999999
324.99999999999994,-0.0386159999999999
325.1999999999999,-0.0378899999999999
325.3999999999999,-0.0367110000000001
325.6,-0.037735
325.7999999999999,-0.0390019999999999
325.99999999999994,-0.0388190000000001
326.1999999999999,-0.036281
326.3999999999999,-0.033147
326.6,-0.029665
326.7999999999999,-0.026569
326.99999999999994,-0.026226
327.1999999999999,-0.0297400000000001
327.3999999999999,-0.0330210000000001
327.6,-0.0363200000000001
327.7999999999999,-0.039449
327.99999999999994,-0.039201
328.1999999999999,-0.036993
328.3999999999999,-0.0361489999999999
328.6,-0.035033
328.7999999999999,-0.0314260000000001
328.99999999999994,-0.0314130000000001
329.1999999999999,-0.0330240000000001
329.3999999999999,-0.0353320000000001
329.6,-0.035951
329.7999999999999,-0.0387000000000001
329.99999999999994,-0.0393450000000001
330.1999999999999,-0.0391460000000001
330.3999999999999,-0.03733
330.6,-0.0379660000000001
330.7999999999999,-0.0374810000000001
330.99999999999994,-0.0376530000000001
331.1999999999999,-0.037295
331.3999999999999,-0.038815
331.6,-0.0393240000000001
331.7999999999999,-0.039074
331.99999999999994,-0.0394160000000001
332.1999999999999,-0.0409559999999999
332.3999999999999,-0.040788
332.6,-0.039576
332.7999999999999,-0.0395499999999999
332.99999999999994,-0.0397230000000001
333.1999999999999,-0.0397990000000001
333.3999999999999,-0.03732
333.6,-0.037795
333.7999999999999,-0.0410430000000001
333.99999999999994,-0.044019
334.1999999999999,-0.044896
334.3999999999999,-0.046469
334.6,-0.047255
334.7999999999999,-0.044937
334.99999999999994,-0.0404999999999999
335.1999999999999,-0.0379340000000001
335.3999999999999,-0.037247
335.6,-0.0359450000000001
335.7999999999999,-0.0342919999999999
335.99999999999994,-0.0357660000000001
336.1999999999999,-0.0371290000000001
336.3999999999999,-0.0384470000000001
336.6,-0.0379420000000001
336.7999999999999,-0.037684
336.99999999999994,-0.0384619999999999
337.1999999999999,-0.0395530000000001
337.3999999999999,-0.0390840000000001
337.6,-0.0395960000000001
337.7999999999999,-0.0399560000000001
337.99999999999994,-0.03729
338.1999999999999,-0.034029
338.3999999999999,-0.0325010000000001
338.6,-0.032907
338.7999999999999,-0.0334100000000001
338.99999999999994,-0.0342470000000001
339.1999999999999,-0.0361520000000001
339.3999999999999,-0.038337
339.6,-0.038807
339.7999999999999,-0.0363280000000001
339.99999999999994,-0.034213
340.1999999999999,-0.032488
340.3999999999999,-0.0308019999999999
340.6,-0.030016
340.7999999999999,-0.032855
340.99999999999994,-0.036718
341.1999999999999,-0.0382340000000001
341.3999999999999,-0.039859
341.6,-0.0413910000000001
341.7999999999999,-0.041169
341.99999999999994,-0.0399
342.1999999999999,-0.0386760000000001
342.3999999999999,-0.038545
342.6,-0.0377210000000001
342.7999999999999,-0.0384040000000001
342.99999999999994,-0.039106
343.1999999999999,-0.0425680000000001
343.3999999999999,-0.0433529999999999
343.6,-0.0440770000000001
343.7999999999999,-0.044334
343.99999999999994,-0.0443120000000001
344.1999999999999,-0.042194
344.3999999999999,-0.0416800000000001
344.6,-0.0397020000000001
344.7999999999999,-0.0387680000000001
344.99999999999994,-0.037887
345.1999999999999,-0.036475
345.3999999999999,-0.035187
345.6,-0.0362550000000001
345.7999999999999,-0.035163
345.99999999999994,-0.0339980000000001
346.1999999999999,-0.0355389999999999
346.3999999999999,-0.0367000000000001
346.6,-0.035816
346.7999999999999,-0.0381600000000001
346.99999999999994,-0.0423360000000001
347.1999999999999,-0.0426760000000001
347.3999999999999,-0.04116
347.6,-0.041395
347.7999999999999,-0.0400690000000001
347.99999999999994,-0.0359519999999999
348.1999999999999,-0.03468
348.3999999999999,-0.0338899999999999
348.6,-0.0343900000000001
348.7999999999999,-0.0340679999999999
348.99999999999994,-0.034823
349.1999999999999,-0.035606
349.3999999999999,-0.038067
349.6,-0.0385429999999999
349.7999999999999,-0.04281
349.99999999999994,-0.045817
350.1999999999999,-0.048408
350.3999999999999,-0.048618
350.6,-0.0497510000000001
350.7999999999999,-0.0474860000000001
350.99999999999994,-0.0476199999999999
351.1999999999999,-0.0462260000000001
351.3999999999999,-0.0462219999999999
351.6,-0.0456230000000001
351.7999999999999,-0.0454000000000001
351.99999999999994,-0.0435020000000001
352.1999999999999,-0.043395
352.3999999999999,-0.0438819999999999
352.6,-0.0433830000000001
352.7999999999999,-0.0414810000000001
352.99999999999994,-0.0398800000000001
353.1999999999999,-0.037697
353.3999999999999,-0.0361310000000001
353.6,-0.0353100000000001
353.7999999999999,-0.0357500000000001
353.99999999999994,-0.037312
354.1999999999999,-0.0386550000000001
354.3999999999999,-0.039797
354.6,-0.0410190000000001
354.7999999999999,-0.0429829999999999
354.99999999999994,-0.044405
355.1999999999999,-0.045635
355.3999999999999,-0.045633
355.6,-0.0431639999999999
355.7999999999999,-0.039703
355.99999999999994,-0.036002
356.1999999999999,-0.035255
356.3999999999999,-0.034558
356.6,-0.03682
356.7999999999999,-0.038783
356.99999999999994,-0.040321
357.1999999999999,-0.0401599999999999
357.3999999999999,-0.038575
357.6,-0.036761
357.7999999999999,-0.037061
357.99999999999994,-0.0398720000000001
358.1999999999999,-0.0409650000000001
358.3999999999999,-0.0424280000000001
358.6,-0.043403
358.7999999999999,-0.042297
358.99999999999994,-0.040918
359.1999999999999,-0.0402900000000001
359.3999999999999,-0.0409540000000001
359.6,-0.042451
359.7999999999999,-0.0435940000000001
359.99999999999994,-0.0432339999999999
360.1999999999999,-0.0437050000000001
360.3999999999999,-0.043897
360.6,-0.0431160000000001
360.7999999999999,-0.0426619999999999
361.0,-0.041317
361.1999999999999,-0.0386790000000001
361.3999999999999,-0.0367970000000001
361.6,-0.0346380000000001
361.7999999999999,-0.036966
362.0,-0.0380409999999999
362.1999999999999,-0.0387570000000001
362.3999999999999,-0.0376780000000001
362.6,-0.0392910000000001
362.7999999999999,-0.0365250000000001
363.0,-0.0356910000000001
363.1999999999999,-0.0370130000000001
363.3999999999999,-0.038996
363.6,-0.040599
363.7999999999999,-0.0426460000000001
364.0,-0.0454480000000001
364.1999999999999,-0.0463109999999999
364.3999999999999,-0.047741
364.6,-0.047584
364.7999999999999,-0.0469939999999999
365.0,-0.0455130000000001
365.1999999999999,-0.0450320000000001
365.3999999999999,-0.046218
365.6,-0.0475270000000001
365.7999999999999,-0.0475499999999999
366.0,-0.0483330000000001
366.1999999999999,-0.04763
366.3999999999999,-0.0451620000000001
366.6,-0.041201
366.7999999999999,-0.0390190000000001
367.0,-0.03692
367.1999999999999,-0.036389
367.3999999999999,-0.035034
367.6,-0.0354890000000001
367.7999999999999,-0.03678
368.0,-0.0390369999999999
368.1999999999999,-0.0396340000000001
368.3999999999999,-0.0412130000000001
368.6,-0.041293
368.7999999999999,-0.0397390000000001
369.0,-0.036111
369.1999999999999,-0.036545
369.3999999999999,-0.0365980000000001
369.6,-0.037662
369.7999999999999,-0.03831
370.0,-0.0409320000000001
370.1999999999999,-0.0420150000000001
370.3999999999999,-0.0438910000000001
370.6,-0.0454560000000001
370.7999999999999,-0.047187
371.0,-0.0479010000000001
371.1999999999999,-0.0464390000000001
371.3999999999999,-0.0444390000000001
371.6,-0.0434400000000001
371.7999999999999,-0.042794
372.0,-0.04186
372.1999999999999,-0.042772
372.3999999999999,-0.0445390000000001
372.6,-0.0443109999999999
372.7999999999999,-0.0436199999999999
373.0,-0.042235
373.1999999999999,-0.0393810000000001
373.3999999999999,-0.037352
373.6,-0.036729
373.7999999999999,-0.038218
374.0,-0.0399580000000001
374.1999999999999,-0.0433240000000001
374.3999999999999,-0.0442900000000001
374.6,-0.0455
374.7999999999999,-0.046442
375.0,-0.045744
375.1999999999999,-0.0430970000000001
375.3999999999999,-0.041574
375.6,-0.0409939999999999
375.7999999999999,-0.0396469999999999
376.0,-0.039522
376.1999999999999,-0.0409479999999999
376.3999999999999,-0.041131
376.6,-0.0405820000000001
376.7999999999999,-0.039152
377.0,-0.0375659999999999
377.1999999999999,-0.0355420000000001
377.3999999999999,-0.034972
377.6,-0.0347589999999999
377.7999999999999,-0.0354290000000001
378.0,-0.0383120000000001
378.1999999999999,-0.0429380000000001
378.3999999999999,-0.047055
378.6,-0.0482900000000001
378.7999999999999,-0.047255
379.0,-0.046095
379.1999999999999,-0.043071
379.3999999999999,-0.039403
379.6,-0.0388140000000001
379.7999999999999,-0.0407270000000001
380.0,-0.0420800000000001
380.1999999999999,-0.0430490000000001
380.3999999999999,-0.0433430000000001
380.6,-0.0421200000000001
380.7999999999999,-0.040639
381.0,-0.039425
381.1999999999999,-0.0399519999999999
381.3999999999999,-0.0427380000000001
381.6,-0.0456780000000001
381.7999999999999,-0.047158
382.0,-0.046245
382.1999999999999,-0.043854
382.3999999999999,-0.0424060000000001
382.6,-0.0397899999999999
382.7999999999999,-0.0385740000000001
383.0,-0.0402600000000001
383.1999999999999,-0.0436469999999999
383.3999999999999,-0.0435940000000001
383.6,-0.045255
383.7999999999999,-0.0467920000000001
384.0,-0.0472840000000001
384.1999999999999,-0.046607
384.3999999999999,-0.047889
384.6,-0.0473000000000001
384.7999999999999,-0.046929
385.0,-0.0463109999999999
385.1999999999999,-0.046108
385.3999999999999,-0.0441310000000001
385.6,-0.0437199999999999
385.7999999999999,-0.043274
386.0,-0.042788
386.1999999999999,-0.041733
386.3999999999999,-0.042307
386.6,-0.0433400000000001
386.7999999999999,-0.0461550000000001
387.0,-0.049263
387.1999999999999,-0.0512179999999999
387.3999999999999,-0.0517199999999999
387.6,-0.0528380000000001
387.7999999999999,-0.0516100000000001
388.0,-0.0510860000000001
388.1999999999999,-0.0513020000000001
388.3999999999999,-0.0512639999999999
388.6,-0.0482980000000001
388.7999999999999,-0.0477640000000001
389.0,-0.0483330000000001
389.1999999999999,-0.0487280000000001
389.3999999999999,-0.049798
389.6,-0.051981
389.7999999999999,-0.0516700000000001
390.0,-0.0481740000000001
390.1999999999999,-0.0461260000000001
390.3999999999999,-0.045868
390.6,-0.044022
390.7999999999999,-0.0426170000000001
391.0,-0.0416130000000001
391.1999999999999,-0.0406820000000001
391.3999999999999,-0.039981
391.6,-0.04302
391.7999999999999,-0.045366
392.0,-0.047779
392.1999999999999,-0.049466
392.3999999999999,-0.0485840000000001
392.6,-0.046291
392.7999999999999,-0.045843
393.0,-0.046399
393.1999999999999,-0.046119
393.3999999999999,-0.0462150000000001
393.6,-0.048696
393.7999999999999,-0.051703
394.0,-0.053409
394.1999999999999,-0.0549870000000001
394.3999999999999,-0.0554510000000001
394.6,-0.053644
394.7999999999999,-0.050839
395.0,-0.0486440000000001
395.1999999999999,-0.047741
395.3999999999999,-0.049573
395.6,-0.0502489999999999
395.7999999999999,-0.050386
396.0,-0.050353
396.1999999999999,-0.0491050000000001
396.3999999999999,-0.0482029999999999
396.6,-0.048051
396.7999999999999,-0.0476070000000001
397.0,-0.048461
397.1999999999999,-0.0492730000000001
397.3999999999999,-0.04909
397.6,-0.0485060000000001
397.7999999999999,-0.0492510000000001
398.0,-0.048974
398.1999999999999,-0.0478120000000001
398.3999999999999,-0.046634
398.6,-0.048057
398.7999999999999,-0.048812
399.0,-0.0516430000000001
399.1999999999999,-0.0526390000000001
399.3999999999999,-0.0513259999999999
399.6,-0.047886
399.7999999999999,-0.044351
400.0,-0.040718
400.1999999999999,-0.0401900000000001
400.3999999999999,-0.040853
400.6,-0.041169
400.7999999999999,-0.0417660000000001
401.0,-0.041628
401.1999999999999,-0.0414579999999999
401.3999999999999,-0.042415
401.6,-0.0438940000000001
401.7999999999999,-0.044901
402.0,-0.0457940000000001
402.1999999999999,-0.048264
402.3999999999999,-0.0491650000000001
402.6,-0.050855
402.7999999999999,-0.0506330000000001
403.0,-0.0476690000000001
403.1999999999999,-0.0449460000000001
403.3999999999999,-0.045438
403.6,-0.0464820000000001
403.7999999999999,-0.0471270000000001
404.0,-0.0488669999999999
404.1999999999999,-0.0488669999999999
404.3999999999999,-0.0493730000000001
404.6,-0.0485200000000001
404.7999999999999,-0.0492590000000001
405.0,-0.0481880000000001
405.1999999999999,-0.048246
405.3999999999999,-0.0484770000000001
405.6,-0.0493400000000001
405.7999999999999,-0.051449
406.0,-0.0559500000000001
406.1999999999999,-0.0603200000000001
406.3999999999999,-0.062426
406.6,-0.061484
406.7999999999999,-0.0590890000000001
407.0,-0.0560100000000001
407.1999999999999,-0.0550570000000001
407.3999999999999,-0.0546820000000001
407.6,-0.0539740000000001
407.7999999999999,-0.0542679999999999
408.0,-0.0561260000000001
408.1999999999999,-0.0541310000000001
408.3999999999999,-0.0509220000000001
408.6,-0.0501280000000001
408.7999999999999,-0.050208
409.0,-0.050353
409.1999999999999,-0.050928
409.3999999999999,-0.0485729999999999
409.6,-0.047377
409.7999999999999,-0.044362
410.0,-0.0425889999999999
410.1999999999999,-0.042246
410.3999999999999,-0.043698
410.6,-0.0445490000000001
410.7999999999999,-0.0462440000000001
411.0,-0.0452240000000001
411.1999999999999,-0.0445850000000001
411.3999999999999,-0.0469410000000001
411.6,-0.049752
411.7999999999999,-0.051533
412.0,-0.051374
412.1999999999999,-0.048594
412.3999999999999,-0.044046
412.6,-0.039652
412.7999999999999,-0.0378260000000001
413.0,-0.0397480000000001
413.1999999999999,-0.042666
413.3999999999999,-0.045803
413.6,-0.048332
413.7999999999999,-0.0477880000000001
414.0,-0.0460020000000001
414.1999999999999,-0.046135
414.3999999999999,-0.0457850000000001
414.6,-0.0451590000000001
414.7999999999999,-0.0455350000000001
415.0,-0.04603
415.1999999999999,-0.0458020000000001
415.3999999999999,-0.046883
415.6,-0.049484
415.7999999999999,-0.0506030000000001
416.0,-0.049719
416.1999999999999,-0.0471650000000001
416.3999999999999,-0.043476
416.6,-0.0414640000000001
416.7999999999999,-0.0434830000000001
417.0,-0.0465140000000001
417.1999999999999,-0.048861
417.3999999999999,-0.052893
417.6,-0.053681
417.7999999999999,-0.052869
418.0,-0.0531240000000001
418.1999999999999,-0.0547699999999999
418.3999999999999,-0.0548790000000001
418.6,-0.055125
418.7999999999999,-0.0551430000000001
419.0,-0.0547159999999999
419.1999999999999,-0.053172
419.3999999999999,-0.0517230000000001
419.6,-0.0525360000000001
419.7999999999999,-0.0519290000000001
420.0,-0.0523060000000001
420.1999999999999,-0.053708
420.3999999999999,-0.054429
420.6,-0.0518530000000001
420.7999999999999,-0.0519740000000001
421.0,-0.0504440000000001
421.1999999999999,-0.0489570000000001
421.3999999999999,-0.047223
421.6,-0.046192
421.7999999999999,-0.042694
422.0,-0.04193
422.1999999999999,-0.04176
422.3999999999999,-0.0437450000000001
422.6,-0.045943
422.7999999999999,-0.049474
423.0,-0.0510890000000001
423.1999999999999,-0.05156
423.3999999999999,-0.052421
423.6,-0.054378
423.7999999999999,-0.0551220000000001
424.0,-0.0559640000000001
424.1999999999999,-0.0585850000000001
424.3999999999999,-0.0594460000000001
424.6,-0.0570860000000001
424.7999999999999,-0.056515
425.0,-0.0568589999999999
425.1999999999999,-0.0545470000000001
425.3999999999999,-0.050089
425.6,-0.048148
425.7999999999999,-0.047541
426.0,-0.047506
426.1999999999999,-0.047349
426.3999999999999,-0.0508239999999999
426.6,-0.054875
426.7999999999999,-0.0564029999999999
427.0,-0.0555210000000001
427.1999999999999,-0.054983
427.3999999999999,-0.053228
427.6,-0.0503950000000001
427.7999999999999,-0.048475
428.0,-0.0469270000000001
428.1999999999999,-0.0462420000000001
428.3999999999999,-0.045468
428.6,-0.0460740000000001
428.7999999999999,-0.0466220000000001
429.0,-0.0495480000000001
429.1999999999999,-0.0511240000000001
429.3999999999999,-0.051771
429.6,-0.050686
429.7999999999999,-0.0493860000000001
430.0,-0.047036
430.1999999999999,-0.04648
430.3999999999999,-0.0477230000000001
430.6,-0.050167
430.7999999999999,-0.0523680000000001
431.0,-0.053706
431.1999999999999,-0.0549350000000001
431.3999999999999,-0.0552030000000001
431.6,-0.0561440000000001
431.7999999999999,-0.056243
432.0,-0.0560720000000001
432.1999999999999,-0.0566820000000001
432.3999999999999,-0.056014
432.6,-0.055755
432.7999999999999,-0.0558750000000001
433.0,-0.0565790000000001
433.1999999999999,-0.0561930000000001
433.3999999999999,-0.058399
433.6,-0.0570209999999999
433.7999999999999,-0.0552130000000001
434.0,-0.0548969999999999
434.1999999999999,-0.0536430000000001
434.3999999999999,-0.0530510000000001
434.6,-0.0546460000000001
434.7999999999999,-0.0579279999999999
435.0,-0.0579979999999999
435.1999999999999,-0.060535
435.3999999999999,-0.0605090000000001
435.6,-0.0597770000000001
435.7999999999999,-0.055681
436.0,-0.0528250000000001
436.1999999999999,-0.0489410000000001
436.3999999999999,-0.047922
436.6,-0.0470380000000001
436.7999999999999,-0.0476340000000001
437.0,-0.0487890000000001
437.1999999999999,-0.0489110000000001
437.3999999999999,-0.045547
437.6,-0.044041
437.7999999999999,-0.045106
438.0,-0.0462489999999999
438.1999999999999,-0.049339
438.3999999999999,-0.054327
438.6,-0.0574860000000001
438.7999999999999,-0.0608589999999999
439.0,-0.063198
439.1999999999999,-0.0626999999999999
439.3999999999999,-0.0593080000000001
439.6,-0.0553810000000001
439.7999999999999,-0.048858
440.0,-0.044936
440.1999999999999,-0.043498
440.3999999999999,-0.0430430000000001
440.6,-0.043125
440.7999999999999,-0.044181
441.0,-0.045606
441.1999999999999,-0.046764
441.3999999999999,-0.0503120000000001
441.6,-0.052945
441.7999999999999,-0.054278
442.0,-0.0544010000000001
442.1999999999999,-0.0538530000000001
442.3999999999999,-0.053144
442.6,-0.0527090000000001
442.7999999999999,-0.0524029999999999
443.0,-0.050078
443.1999999999999,-0.049871
443.3999999999999,-0.0494020000000001
443.6,-0.048815
443.7999999999999,-0.048176
444.0,-0.048877
444.1999999999999,-0.048211
444.3999999999999,-0.046802
444.6,-0.046553
444.7999999999999,-0.0452130000000001
445.0,-0.0444840000000001
445.1999999999999,-0.0439580000000001
445.3999999999999,-0.046491
445.6,-0.048991
445.7999999999999,-0.05095
446.0,-0.0525410000000001
446.1999999999999,-0.055455
446.3999999999999,-0.0558
446.6,-0.054826
446.7999999999999,-0.056516
447.0,-0.059172
447.1999999999999,-0.058677
447.3999999999999,-0.057403
447.6,-0.0572639999999999
447.7999999999999,-0.0571190000000001
448.0,-0.0554259999999999
448.1999999999999,-0.0536780000000001
448.3999999999999,-0.053026
448.6,-0.0507779999999999
448.7999999999999,-0.0505729999999999
449.0,-0.0519439999999999
449.1999999999999,-0.053976
449.3999999999999,-0.0557480000000001
449.6,-0.0587410000000001
449.7999999999999,-0.0589730000000001
450.0,-0.0571270000000001
450.1999999999999,-0.0567429999999999
450.3999999999999,-0.054656
450.6,-0.0514879999999999
450.7999999999999,-0.0505360000000001
451.0,-0.0510300000000001
451.1999999999999,-0.0505619999999999
451.3999999999999,-0.051492
451.6,-0.05153
451.7999999999999,-0.0511670000000001
452.0,-0.049298
452.1999999999999,-0.0477850000000001
452.3999999999999,-0.047889
452.6,-0.0516039999999999
452.7999999999999,-0.0519740000000001
453.0,-0.051843
453.1999999999999,-0.0536350000000001
453.3999999999999,-0.054329
453.6,-0.0526820000000001
453.7999999999999,-0.0531350000000001
454.0,-0.0553430000000001
454.1999999999999,-0.056289
454.3999999999999,-0.05488
454.6,-0.054248
454.7999999999999,-0.054864
455.0,-0.0534350000000001
455.1999999999999,-0.0492890000000001
455.3999999999999,-0.0470080000000001
455.6,-0.046964
455.7999999999999,-0.0474910000000001
456.0,-0.048324
456.1999999999999,-0.0527460000000001
456.3999999999999,-0.057031
456.6,-0.0602599999999999
456.7999999999999,-0.061422
457.0,-0.0613080000000001
457.1999999999999,-0.0581660000000001
457.3999999999999,-0.055115
457.6,-0.0528970000000001
457.7999999999999,-0.050154
458.0,-0.0520200000000001
458.1999999999999,-0.054138
458.3999999999999,-0.052669
458.6,-0.049725
458.7999999999999,-0.0487000000000001
459.0,-0.04665
459.1999999999999,-0.044672
459.3999999999999,-0.0473879999999999
459.6,-0.050372
459.7999999999999,-0.0531320000000001
460.0,-0.0536229999999999
460.1999999999999,-0.0561820000000001
460.3999999999999,-0.0571590000000001
460.6,-0.0577260000000001
460.7999999999999,-0.057466
461.0,-0.0563299999999999
461.1999999999999,-0.0514800000000001
461.3999999999999,-0.0475050000000001
461.6,-0.0449540000000001
461.7999999999999,-0.0442340000000001
462.0,-0.044707
462.1999999999999,-0.0478210000000001
462.3999999999999,-0.0498580000000001
462.6,-0.0523919999999999
462.7999999999999,-0.0516350000000001
463.0,-0.051798
463.1999999999999,-0.0509030000000001
463.3999999999999,-0.050259
463.6,-0.0482280000000001
463.7999999999999,-0.0505280000000001
464.0,-0.0525570000000001
464.1999999999999,-0.056254
464.3999999999999,-0.060348
464.6,-0.0637940000000001
464.7999999999999,-0.063153
465.0,-0.061039
465.1999999999999,-0.059417
465.3999999999999,-0.057458
465.6,-0.0548509999999999
465.7999999999999,-0.0537039999999999
466.0,-0.05207
466.1999999999999,-0.0499740000000001
466.3999999999999,-0.0507090000000001
466.6,-0.053252
466.7999999999999,-0.056297
467.0,-0.0600280000000001
467.1999999999999,-0.06149
467.3999999999999,-0.060562
467.6,-0.05943
467.7999999999999,-0.0589589999999999
468.0,-0.061323
468.1999999999999,-0.063218
468.3999999999999,-0.0631300000000001
468.6,-0.062743
468.7999999999999,-0.0609160000000001
469.0,-0.057236
469.1999999999999,-0.0551840000000001
469.3999999999999,-0.0552970000000001
469.6,-0.053744
469.7999999999999,-0.053355
470.0,-0.0511320000000001
470.1999999999999,-0.0504310000000001
470.3999999999999,-0.050192
470.6,-0.0502070000000001
470.7999999999999,-0.0478359999999999
471.0,-0.047476
471.1999999999999,-0.0465090000000001
471.3999999999999,-0.0467010000000001
471.6,-0.046281
471.7999999999999,-0.046472
472.0,-0.0468680000000001
472.1999999999999,-0.0502610000000001
472.3999999999999,-0.0526390000000001
472.6,-0.055752
472.7999999999999,-0.0572590000000001
473.0,-0.055879
473.1999999999999,-0.051798
473.3999999999999,-0.047903
473.6,-0.045601
473.7999999999999,-0.047395
474.0,-0.0513799999999999
474.1999999999999,-0.0535880000000001
474.3999999999999,-0.0530700000000001
474.6,-0.0513100000000001
474.7999999999999,-0.049201
475.0,-0.048181
475.1999999999999,-0.050051
475.3999999999999,-0.0532160000000001
475.6,-0.0560439999999999
475.7999999999999,-0.0573179999999999
476.0,-0.0586459999999999
476.1999999999999,-0.0584140000000001
476.3999999999999,-0.059674
476.6,-0.060008
476.7999999999999,-0.060424
477.0,-0.0581230000000001
477.1999999999999,-0.0557100000000001
477.3999999999999,-0.0521519999999999
477.6,-0.049854
477.7999999999999,-0.0490700000000001
478.0,-0.0496070000000001
478.1999999999999,-0.0508220000000001
478.3999999999999,-0.051738
478.6,-0.053568
478.7999999999999,-0.054176
479.0,-0.054413
479.1999999999999,-0.0544919999999999
479.3999999999999,-0.0555720000000001
479.6,-0.055131
479.7999999999999,-0.0528710000000001
480.0,-0.0513750000000001
480.1999999999999,-0.0489300000000001
480.3999999999999,-0.0456849999999999
480.6,-0.0452730000000001
480.7999999999999,-0.04759
481.0,-0.0511190000000001
481.1999999999999,-0.0529250000000001
481.3999999999999,-0.0561820000000001
481.6,-0.0574640000000001
481.7999999999999,-0.0565600000000001
482.0,-0.0540230000000001
482.1999999999999,-0.0526300000000001
482.3999999999999,-0.050802
482.6,-0.049098
482.7999999999999,-0.047582
483.0,-0.048157
483.1999999999999,-0.0502660000000001
483.3999999999999,-0.0512380000000001
483.6,-0.0515039999999999
483.7999999999999,-0.0513100000000001
484.0,-0.051457
484.1999999999999,-0.052051
484.3999999999999,-0.052912
484.6,-0.0542630000000001
484.7999999999999,-0.058178
485.0,-0.0608090000000001
485.1999999999999,-0.0602850000000001
485.3999999999999,-0.0578050000000001
485.6,-0.056461
485.7999999999999,-0.0537659999999999
486.0,-0.0516100000000001
486.1999999999999,-0.051843
486.3999999999999,-0.0538180000000001
486.6,-0.0526740000000001
486.7999999999999,-0.051968
487.0,-0.0518720000000001
487.1999999999999,-0.0521519999999999
487.3999999999999,-0.053112
487.6,-0.052874
487.7999999999999,-0.0532030000000001
488.0,-0.0536050000000001
488.1999999999999,-0.057846
488.3999999999999,-0.0607200000000001
488.6,-0.0641280000000001
488.7999999999999,-0.064108
489.0,-0.0622100000000001
489.1999999999999,-0.055776
489.3999999999999,-0.0511050000000001
489.6,-0.049552
489.7999999999999,-0.049689
490.0,-0.050464
490.1999999999999,-0.052882
490.3999999999999,-0.0558500000000001
490.6,-0.0573400000000001
490.7999999999999,-0.0584360000000001
491.0,-0.0606570000000001
491.1999999999999,-0.0610270000000001
491.3999999999999,-0.0584839999999999
491.6,-0.0564470000000001
491.7999999999999,-0.055711
492.0,-0.053436
492.1999999999999,-0.051895
492.3999999999999,-0.0526870000000001
492.6,-0.054842
492.7999999999999,-0.0568589999999999
493.0,-0.0590319999999999
493.1999999999999,-0.0597050000000001
493.3999999999999,-0.0602139999999999
493.6,-0.061754
493.7999999999999,-0.061034
494.0,-0.058956
494.1999999999999,-0.058413
494.3999999999999,-0.0586300000000001
494.6,-0.0583200000000001
494.7999999999999,-0.0586040000000001
495.0,-0.060413
495.1999999999999,-0.059001
495.3999999999999,-0.0569890000000001
495.6,-0.0539850000000001
495.7999999999999,-0.0549700000000001
496.0,-0.0544459999999999
496.1999999999999,-0.0568760000000001
496.3999999999999,-0.0562170000000001
496.6,-0.0554970000000001
496.7999999999999,-0.0516929999999999
497.0,-0.049662
497.1999999999999,-0.0472369999999999
497.3999999999999,-0.0477230000000001
497.6,-0.0488859999999999
497.7999999999999,-0.0504980000000001
498.0,-0.0546490000000001
498.1999999999999,-0.057339
498.3999999999999,-0.0592099999999999
498.6,-0.0611680000000001
498.7999999999999,-0.0623250000000001
499.0,-0.060956
499.1999999999999,-0.0598670000000001
499.3999999999999,-0.058472
499.6,-0.055042
499.7999999999999,-0.052853
500.0,-0.05115
500.1999999999999,-0.0514810000000001
500.3999999999999,-0.0530060000000001
500.6,-0.055193
500.7999999999999,-0.054947
501.0,-0.0548840000000001
501.1999999999999,-0.0542440000000001
501.3999999999999,-0.051574
501.6,-0.0509859999999999
501.7999999999999,-0.0531209999999999
502.0,-0.052988
502.1999999999999,-0.0515940000000001
502.3999999999999,-0.0534530000000001
502.6,-0.055795
502.7999999999999,-0.056691
503.0,-0.058084
503.1999999999999,-0.062837
503.3999999999999,-0.064893
503.6,-0.0631520000000001
503.7999999999999,-0.0606930000000001
504.0,-0.0599930000000001
504.1999999999999,-0.058235
504.3999999999999,-0.056562
504.6,-0.0555800000000001
504.7999999999999,-0.0570320000000001
505.0,-0.0585790000000001
505.1999999999999,-0.0574100000000001
505.3999999999999,-0.056788
505.6,-0.0568250000000001
505.7999999999999,-0.055646
506.0,-0.0547710000000001
506.1999999999999,-0.0573670000000001
506.3999999999999,-0.060319
506.6,-0.062419
506.7999999999999,-0.0636849999999999
507.0,-0.065458
507.1999999999999,-0.0643
507.3999999999999,-0.06217
507.6,-0.0585630000000001
507.7999999999999,-0.057077
508.0,-0.055768
508.1999999999999,-0.0553529999999999
508.3999999999999,-0.0547820000000001
508.6,-0.055903
508.7999999999999,-0.055755
509.0,-0.051978
509.1999999999999,-0.0487239999999999
509.3999999999999,-0.0488810000000001
509.6,-0.0531430000000001
509.7999999999999,-0.057363
510.0,-0.061414
510.1999999999999,-0.0638850000000001
510.3999999999999,-0.0645459999999999
510.6,-0.062624
510.7999999999999,-0.0592400000000001
511.0,-0.0579880000000001
511.1999999999998,-0.056942
511.3999999999999,-0.0539990000000001
511.5999999999999,-0.0509319999999999
511.8,-0.052696
512.0,-0.0546010000000001
512.1999999999998,-0.057417
512.3999999999999,-0.060632
512.5999999999999,-0.0626010000000001
512.8,-0.0619359999999999
513.0,-0.0623820000000001
513.1999999999998,-0.062659
513.3999999999999,-0.0632829999999999
513.5999999999999,-0.0656970000000001
513.8,-0.0646710000000001
514.0,-0.0608730000000001
514.1999999999998,-0.0563260000000001
514.3999999999999,-0.0526969999999999
514.5999999999999,-0.048286
514.8,-0.046998
515.0,-0.047622
515.1999999999998,-0.050292
515.3999999999999,-0.0514689999999999
515.5999999999999,-0.0510760000000001
515.8,-0.0524090000000001
516.0,-0.0544680000000001
516.1999999999998,-0.0566550000000001
516.3999999999999,-0.057911
516.5999999999999,-0.0593879999999999
516.8,-0.0589350000000001
517.0,-0.057622
517.1999999999998,-0.0533370000000001
517.3999999999999,-0.0511130000000001
517.5999999999999,-0.051646
517.8,-0.0521360000000001
518.0,-0.0518310000000001
518.1999999999998,-0.0544360000000001
518.3999999999999,-0.0588030000000001
518.5999999999999,-0.0631410000000001
518.8,-0.066032
519.0,-0.067449
519.1999999999998,-0.0680230000000001
519.3999999999999,-0.0680910000000001
519.5999999999999,-0.0655609999999999
519.8,-0.065668
520.0,-0.0659260000000001
520.1999999999998,-0.063817
520.3999999999999,-0.0601789999999999
520.5999999999999,-0.059063
520.8,-0.0567190000000001
521.0,-0.056426
521.1999999999998,-0.0580820000000001
521.3999999999999,-0.058901
521.5999999999999,-0.0580990000000001
521.8,-0.057379
522.0,-0.0579169999999999
522.1999999999998,-0.058203
522.3999999999999,-0.0594750000000001
522.5999999999999,-0.06092
522.8,-0.062869
523.0,-0.061482
523.1999999999998,-0.060494
523.3999999999999,-0.059015
523.5999999999999,-0.0567710000000001
523.8,-0.0543820000000001
524.0,-0.0548090000000001
524.1999999999998,-0.055217
524.3999999999999,-0.0549510000000001
524.5999999999999,-0.0554780000000001
524.8,-0.056977
525.0,-0.058507
525.1999999999998,-0.0584649999999999
525.3999999999999,-0.0591840000000001
525.5999999999999,-0.0603740000000001
525.8,-0.062186
526.0,-0.0619290000000001
526.1999999999998,-0.064059
526.3999999999999,-0.0652600000000001
526.5999999999999,-0.066483
526.8,-0.0658100000000001
527.0,-0.0650680000000001
527.1999999999998,-0.062416
527.3999999999999,-0.060521
527.5999999999999,-0.0608820000000001
527.8,-0.0621560000000001
528.0,-0.063773
528.1999999999998,-0.065476
528.3999999999999,-0.067023
528.5999999999999,-0.067774
528.8,-0.0663740000000001
529.0,-0.0629490000000001
529.1999999999998,-0.061552
529.3999999999999,-0.0620310000000001
529.5999999999999,-0.05915
529.8,-0.056734
530.0,-0.0576720000000001
530.1999999999998,-0.0598290000000001
530.3999999999999,-0.0607740000000001
530.5999999999999,-0.061833
530.8,-0.0635730000000001
531.0,-0.0626200000000001
531.1999999999998,-0.0594050000000001
531.3999999999999,-0.0565410000000001
531.5999999999999,-0.057978
531.8,-0.05949
532.0,-0.06223
532.1999999999998,-0.065263
532.3999999999999,-0.069074
532.5999999999999,-0.068275
532.8,-0.0667550000000001
533.0,-0.0658830000000001
533.1999999999998,-0.065695
533.3999999999999,-0.064446
533.5999999999999,-0.0649730000000001
533.8,-0.0645680000000001
534.0,-0.0629300000000001
534.1999999999998,-0.062359
534.3999999999999,-0.0619860000000001
534.5999999999999,-0.0606660000000001
534.8,-0.0612240000000001
535.0,-0.0622260000000001
535.1999999999998,-0.0630110000000001
535.3999999999999,-0.063679
535.5999999999999,-0.0647300000000001
535.8,-0.065088
536.0,-0.065792
536.1999999999998,-0.066567
536.3999999999999,-0.067598
536.5999999999999,-0.067889
536.8,-0.068473
537.0,-0.0700200000000002
537.1999999999998,-0.0680070000000001
537.3999999999999,-0.064554
537.5999999999999,-0.0608360000000001
537.8,-0.058721
538.0,-0.0561170000000001
538.1999999999998,-0.055735
538.3999999999999,-0.0559290000000001
538.5999999999999,-0.0581820000000001
538.8,-0.0562010000000001
539.0,-0.055433
539.1999999999998,-0.055074
539.3999999999999,-0.057681
539.5999999999999,-0.0566349999999999
539.8,-0.057811
540.0,-0.057185
540.1999999999998,-0.0559230000000001
540.3999999999999,-0.051892
540.5999999999999,-0.050572
540.8,-0.051104
541.0,-0.0518340000000001
541.1999999999998,-0.052607
541.3999999999999,-0.0537210000000001
541.5999999999999,-0.0562759999999999
541.8,-0.0564010000000001
542.0,-0.056704
542.1999999999998,-0.0560470000000001
542.3999999999999,-0.0545390000000001
542.5999999999999,-0.0526520000000001
542.8,-0.0536020000000001
543.0,-0.0556910000000001
543.1999999999998,-0.058108
543.3999999999999,-0.0596860000000001
543.5999999999999,-0.0603470000000001
543.8,-0.061396
544.0,-0.0604630000000001
544.1999999999998,-0.0589570000000001
544.3999999999999,-0.057795
544.5999999999999,-0.057449
544.8,-0.055528
545.0,-0.053884
545.1999999999998,-0.05366
545.3999999999999,-0.05448
545.5999999999999,-0.055234
545.8,-0.055557
546.0,-0.057568
546.1999999999998,-0.0586920000000001
546.3999999999999,-0.060877
546.5999999999999,-0.0604870000000001
546.8,-0.0588859999999999
547.0,-0.0567550000000001
547.1999999999998,-0.0556880000000001
547.3999999999999,-0.054974
547.5999999999999,-0.0556070000000001
547.8,-0.059034
548.0,-0.0616370000000001
548.1999999999998,-0.0620420000000001
548.3999999999999,-0.0607969999999999
548.5999999999999,-0.0595700000000001
548.8,-0.0595270000000001
549.0,-0.0591300000000001
549.1999999999998,-0.0595890000000001
549.3999999999999,-0.0596270000000001
549.5999999999999,-0.0605459999999999
549.8,-0.058993
550.0,-0.0593840000000001
550.1999999999998,-0.0605200000000001
550.3999999999999,-0.063395
550.5999999999999,-0.064899
550.8,-0.065992
551.0,-0.0658020000000001
551.1999999999998,-0.064575
551.3999999999999,-0.063001
551.5999999999999,-0.06319
551.8,-0.0635240000000001
552.0,-0.0624710000000001
552.1999999999998,-0.061369
552.3999999999999,-0.059844
552.5999999999999,-0.059342
552.8,-0.0591700000000001
553.0,-0.060176
553.1999999999998,-0.0623010000000001
553.3999999999999,-0.062696
553.5999999999999,-0.062073
553.8,-0.062437
554.0,-0.063396
554.1999999999998,-0.0621450000000001
554.3999999999999,-0.061571
554.5999999999999,-0.060772
554.8,-0.0597860000000001
555.0,-0.058378
555.1999999999998,-0.0595609999999999
555.3999999999999,-0.0598640000000001
555.5999999999999,-0.059034
555.8,-0.0567969999999999
556.0,-0.0542440000000001
556.1999999999998,-0.052105
556.3999999999999,-0.05386
556.5999999999999,-0.0581260000000001
556.8,-0.0631920000000001
557.0,-0.065908
557.1999999999998,-0.066429
557.3999999999999,-0.0655339999999999
557.5999999999999,-0.0635130000000001
557.8,-0.061083
558.0,-0.0603
558.1999999999998,-0.061277
558.3999999999999,-0.0640899999999999
558.5999999999999,-0.065301
558.8,-0.0644219999999999
559.0,-0.0634780000000001
559.1999999999998,-0.0607460000000001
559.3999999999999,-0.0566120000000001
559.5999999999999,-0.0545170000000001
559.8,-0.0543200000000001
560.0,-0.057242
560.1999999999998,-0.0599610000000001
560.3999999999999,-0.0615530000000001
560.5999999999999,-0.0621439999999999
560.8,-0.063023
561.0,-0.0606790000000001
561.1999999999998,-0.059865
561.3999999999999,-0.05909
561.5999999999999,-0.057439
561.8,-0.0559390000000001
562.0,-0.0566330000000001
562.1999999999998,-0.0584870000000001
562.3999999999999,-0.060977
562.5999999999999,-0.061916
562.8,-0.061161
563.0,-0.061317
563.1999999999998,-0.060205
563.3999999999999,-0.0573179999999999
563.5999999999999,-0.056723
563.8,-0.059827
564.0,-0.059776
564.1999999999998,-0.0596499999999999
564.3999999999999,-0.0583870000000001
564.5999999999999,-0.057735
564.8,-0.056343
565.0,-0.0560610000000001
565.1999999999998,-0.056902
565.3999999999999,-0.0586310000000001
565.5999999999999,-0.0591909999999999
565.8,-0.057482
566.0,-0.056793
566.1999999999998,-0.056651
566.3999999999999,-0.0594419999999999
566.5999999999999,-0.0627790000000001
566.8,-0.064969
567.0,-0.065862
567.1999999999998,-0.0652000000000001
567.3999999999999,-0.0645090000000001
567.5999999999999,-0.0623150000000001
567.8,-0.0621059999999999
568.0,-0.062689
568.1999999999998,-0.063285
568.3999999999999,-0.0617770000000001
568.5999999999999,-0.0624870000000001
568.8,-0.0636640000000001
569.0,-0.064894
569.1999999999998,-0.066926
569.3999999999999,-0.0691669999999999
569.5999999999999,-0.071077
569.8,-0.070432
570.0,-0.069889
570.1999999999998,-0.0677290000000001
570.3999999999999,-0.0654100000000001
570.5999999999999,-0.0615750000000001
570.8,-0.059746
571.0,-0.058146
571.1999999999998,-0.0583870000000001
571.3999999999999,-0.0614430000000001
571.5999999999999,-0.066275
571.8,-0.0708349999999999
572.0,-0.071838
572.1999999999998,-0.0714570000000001
572.3999999999999,-0.0670810000000001
572.5999999999999,-0.0632460000000001
572.8,-0.0591780000000001
572.9999999999998,-0.058956
573.1999999999998,-0.0581020000000001
573.3999999999999,-0.0596320000000001
573.5999999999999,-0.0594830000000001
573.8,-0.0596990000000001
573.9999999999998,-0.0574180000000001
574.1999999999998,-0.0566760000000001
574.3999999999999,-0.056661
574.5999999999999,-0.0569680000000001
574.8,-0.060257
574.9999999999998,-0.063458
575.1999999999998,-0.0640660000000001
575.3999999999999,-0.0653030000000001
575.5999999999999,-0.0671060000000001
575.8,-0.0660210000000001
575.9999999999998,-0.0662120000000001
576.1999999999998,-0.0693430000000001
576.3999999999999,-0.0706710000000001
576.5999999999999,-0.0705660000000001
576.8,-0.0700009999999999
576.9999999999998,-0.0688030000000001
577.1999999999998,-0.0667190000000002
577.3999999999999,-0.0636149999999999
577.5999999999999,-0.0632030000000001
577.8,-0.0618370000000001
577.9999999999998,-0.0630570000000001
578.1999999999998,-0.0614020000000001
578.3999999999999,-0.0619310000000001
578.5999999999999,-0.060256
578.8,-0.0614380000000001
578.9999999999998,-0.0617670000000001
579.1999999999998,-0.063906
579.3999999999999,-0.0632650000000001
579.5999999999999,-0.0637
579.8,-0.0646379999999999
579.9999999999998,-0.0648699999999999
580.1999999999998,-0.0650840000000001
580.3999999999999,-0.06542
580.5999999999999,-0.0667740000000001
580.8,-0.0672110000000001
580.9999999999998,-0.066991
581.1999999999998,-0.0662960000000001
581.3999999999999,-0.066702
581.5999999999999,-0.065863
581.8,-0.0636560000000001
581.9999999999998,-0.0621450000000001
582.1999999999998,-0.0606140000000001
582.3999999999999,-0.0583139999999999
582.5999999999999,-0.0567440000000001
582.8,-0.0565440000000001
582.9999999999998,-0.057836
583.1999999999998,-0.059363
583.3999999999999,-0.0611129999999999
583.5999999999999,-0.063009
583.8,-0.062616
583.9999999999998,-0.0618119999999999
584.1999999999998,-0.061142
584.3999999999999,-0.0613480000000001
584.5999999999999,-0.0613350000000001
584.8,-0.061285
584.9999999999998,-0.062586
585.1999999999998,-0.0639400000000001
585.3999999999999,-0.0669350000000001
585.5999999999999,-0.067461
585.8,-0.067668
585.9999999999998,-0.0654640000000001
586.1999999999998,-0.064656
586.3999999999999,-0.0638199999999999
586.5999999999999,-0.064079
586.8,-0.064839
586.9999999999998,-0.0661740000000001
587.1999999999998,-0.0663740000000001
587.3999999999999,-0.0628509999999999
587.5999999999999,-0.060329
587.8,-0.0595400000000001
587.9999999999998,-0.0581980000000001
588.1999999999998,-0.058119
588.3999999999999,-0.060454
588.5999999999999,-0.0619130000000001
588.8,-0.0616830000000001
588.9999999999998,-0.060297
589.1999999999998,-0.059207
589.3999999999999,-0.0578009999999999
589.5999999999999,-0.0592289999999999
589.8,-0.062524
589.9999999999998,-0.065177
590.1999999999998,-0.066899
590.3999999999999,-0.0681960000000001
590.5999999999999,-0.067279
590.8,-0.066362
590.9999999999998,-0.0668380000000001
591.1999999999998,-0.0680340000000001
591.3999999999999,-0.0683500000000001
591.5999999999999,-0.069028
591.8,-0.0683550000000001
591.9999999999998,-0.067757
592.1999999999998,-0.0664850000000001
592.3999999999999,-0.066505
592.5999999999999,-0.066319
592.8,-0.06633
592.9999999999998,-0.0667310000000001
593.1999999999998,-0.0676689999999999
593.3999999999999,-0.069943
593.5999999999999,-0.072942
593.8,-0.075976
593.9999999999998,-0.077037
594.1999999999998,-0.077566
594.3999999999999,-0.077676
594.5999999999999,-0.0755940000000001
594.8,-0.0699070000000001
594.9999999999998,-0.065185
595.1999999999998,-0.061188
595.3999999999999,-0.0575990000000001
595.5999999999999,-0.05614
595.8,-0.0588440000000001
595.9999999999998,-0.061695
596.1999999999998,-0.0643980000000001
596.3999999999999,-0.064551
596.5999999999999,-0.063101
596.8,-0.0627220000000001
596.9999999999998,-0.0638310000000002
597.1999999999998,-0.064559
597.3999999999999,-0.0637160000000001
597.5999999999999,-0.0613970000000001
597.8,-0.0601329999999999
597.9999999999998,-0.057836
598.1999999999998,-0.054578
