Time (s),Shift (nm)
0.0,0.0
0.1999999999999886,-0.0017799999999996
0.4000000000000341,-0.0026319999999997
0.6000000000000227,-0.0037329999999999
0.8000000000000114,-0.0029949999999998
1.0,-0.0028889999999996
1.1999999999999886,-0.0026939999999999
1.400000000000034,-0.0029449999999999
1.6000000000000227,-0.0009599999999996
1.8000000000000114,0.0011330000000002
2.0,0.0037690000000001
2.1999999999999886,0.0070369999999999
2.400000000000034,0.0098030000000002
2.6000000000000227,0.0135140000000002
2.800000000000012,0.0158770000000001
3.0,0.016887
3.1999999999999886,0.0165779999999999
3.400000000000034,0.0165770000000002
3.6000000000000227,0.0116740000000001
3.8000000000000114,0.0072200000000002
4.0,0.0041950000000001
4.199999999999989,0.0044370000000002
4.400000000000034,0.0049770000000002
4.600000000000023,0.0082780000000002
4.800000000000011,0.0106490000000003
5.0,0.0128530000000002
5.199999999999989,0.0128319999999999
5.400000000000034,0.0139590000000002
5.600000000000023,0.0130850000000002
5.800000000000011,0.0124520000000001
6.0,0.0128500000000002
6.199999999999989,0.0132720000000001
6.400000000000034,0.0135960000000001
6.600000000000023,0.0156940000000003
6.800000000000011,0.0182090000000001
7.0,0.019317
7.199999999999989,0.0206150000000002
7.400000000000034,0.0203230000000003
7.600000000000023,0.0188270000000003
7.800000000000011,0.0156720000000003
8.0,0.0140410000000001
8.199999999999989,0.0144520000000003
8.400000000000034,0.0163570000000001
8.600000000000023,0.0182060000000001
8.800000000000011,0.0235880000000001
9.0,0.026256
9.199999999999989,0.0266450000000002
9.400000000000034,0.0233160000000003
9.600000000000025,0.019784
9.800000000000011,0.0147810000000001
10.0,0.0120219999999999
10.199999999999989,0.0111400000000001
10.400000000000034,0.0122740000000001
10.600000000000025,0.014081
10.800000000000011,0.0123250000000001
11.0,0.0101759999999999
11.199999999999989,0.0074110000000002
11.400000000000034,0.0053940000000003
11.600000000000025,0.004204
11.800000000000011,0.0071340000000001
12.0,0.0115890000000002
12.199999999999989,0.0153700000000003
12.400000000000034,0.0190049999999999
12.600000000000025,0.0202919999999999
12.800000000000011,0.0201100000000002
13.0,0.0171480000000001
13.199999999999989,0.0162180000000002
13.400000000000034,0.0157800000000003
13.600000000000025,0.0166440000000003
13.800000000000011,0.0169000000000001
14.0,0.0175110000000002
14.199999999999989,0.0166720000000002
14.400000000000034,0.0154270000000003
14.600000000000025,0.0138199999999999
14.800000000000011,0.0120080000000002
15.0,0.0113210000000001
15.199999999999989,0.0107270000000001
15.400000000000034,0.0108920000000001
15.600000000000025,0.0133240000000003
15.800000000000011,0.0171730000000001
16.0,0.0196300000000002
16.19999999999999,0.020817
16.400000000000034,0.021706
16.600000000000023,0.0212090000000002
16.80000000000001,0.020407
17.0,0.0204170000000001
17.19999999999999,0.0214980000000002
17.400000000000034,0.023441
17.600000000000023,0.0243999999999999
17.80000000000001,0.0240219999999999
18.0,0.0218160000000002
18.19999999999999,0.0186960000000002
18.400000000000038,0.0163520000000003
18.600000000000023,0.0148540000000001
18.80000000000001,0.016582
19.0,0.0167810000000003
19.19999999999999,0.01702
19.400000000000038,0.0157910000000001
19.600000000000023,0.0164850000000003
19.80000000000001,0.014723
20.0,0.0140109999999999
20.19999999999999,0.0141550000000001
20.400000000000038,0.0144510000000002
20.600000000000023,0.0132430000000001
20.80000000000001,0.0110399999999999
21.0,0.0110080000000003
21.19999999999999,0.0119760000000002
21.400000000000038,0.013274
21.600000000000023,0.0140230000000003
21.80000000000001,0.014269
22.0,0.0134920000000002
22.19999999999999,0.0112640000000001
22.400000000000038,0.0102100000000002
22.600000000000023,0.011524
22.80000000000001,0.0155540000000002
23.0,0.0177150000000003
23.19999999999999,0.0173970000000003
23.400000000000038,0.0158010000000001
23.600000000000023,0.0128449999999999
23.80000000000001,0.0102000000000002
24.0,0.0094570000000002
24.19999999999999,0.010431
24.400000000000038,0.0107880000000002
24.600000000000023,0.0099900000000001
24.80000000000001,0.0100060000000001
25.0,0.0120430000000002
25.19999999999999,0.013179
25.400000000000038,0.014053
25.600000000000023,0.0157519999999999
25.80000000000001,0.0171430000000003
26.0,0.0176950000000002
26.19999999999999,0.0179710000000001
26.400000000000038,0.0179530000000003
26.600000000000023,0.0162590000000002
26.80000000000001,0.0139230000000001
27.0,0.0117500000000001
27.19999999999999,0.0125990000000002
27.400000000000038,0.0137580000000001
27.600000000000023,0.016585
27.80000000000001,0.0178410000000002
28.0,0.0184470000000001
28.19999999999999,0.0187590000000001
28.400000000000038,0.0194830000000001
28.600000000000023,0.0205030000000001
28.80000000000001,0.0224930000000003
29.0,0.0232689999999999
29.19999999999999,0.0233790000000002
29.400000000000038,0.0210080000000001
29.600000000000023,0.0189120000000002
29.80000000000001,0.0166539999999999
30.0,0.0145870000000001
30.19999999999999,0.0104640000000002
30.400000000000038,0.008474
30.600000000000023,0.0058679999999999
30.80000000000001,0.0034080000000002
31.0,0.0030480000000001
31.19999999999999,0.0039280000000001
31.400000000000038,0.0063919999999999
31.600000000000023,0.0111860000000003
31.80000000000001,0.0157869999999999
32.0,0.018596
32.19999999999999,0.021258
32.400000000000034,0.0216600000000002
32.60000000000002,0.0184510000000002
32.80000000000001,0.0158180000000003
33.0,0.0155389999999999
33.19999999999999,0.014682
33.400000000000034,0.0144320000000002
33.60000000000002,0.015273
33.80000000000001,0.0163830000000002
34.0,0.0168270000000001
34.19999999999999,0.0170110000000001
34.400000000000034,0.0185250000000003
34.60000000000002,0.0194520000000002
34.80000000000001,0.0199760000000002
35.0,0.0197260000000003
35.19999999999999,0.0191460000000001
35.400000000000034,0.016715
35.60000000000002,0.016318
35.80000000000001,0.016734
36.0,0.017433
36.19999999999999,0.018907
36.400000000000034,0.022453
36.60000000000002,0.0226459999999999
36.80000000000001,0.0220540000000002
37.0,0.0189590000000001
37.19999999999999,0.0155579999999999
37.400000000000034,0.0131990000000001
37.60000000000002,0.0124300000000001
37.80000000000001,0.0119009999999999
38.0,0.0123710000000003
38.19999999999999,0.0136570000000002
38.400000000000034,0.0138199999999999
38.60000000000002,0.0137430000000002
38.80000000000001,0.013236
39.0,0.014904
39.19999999999999,0.0160249999999999
39.400000000000034,0.01478
39.60000000000002,0.014002
39.80000000000001,0.0132980000000002
40.0,0.010793
40.19999999999999,0.0076400000000003
40.400000000000034,0.00625
40.60000000000002,0.0066540000000001
40.80000000000001,0.0067910000000002
41.0,0.0072130000000001
41.19999999999999,0.008893
41.400000000000034,0.0111540000000003
41.60000000000002,0.0117250000000002
41.80000000000001,0.0109030000000003
42.0,0.0096960000000003
42.19999999999999,0.0095330000000002
42.400000000000034,0.009894
42.60000000000002,0.0096260000000003
42.80000000000001,0.0106650000000003
43.0,0.0141280000000003
43.19999999999999,0.0167130000000002
43.400000000000034,0.0166410000000003
43.60000000000002,0.0156150000000003
43.80000000000001,0.0147240000000001
44.0,0.011765
44.19999999999999,0.00984
44.400000000000034,0.0093140000000002
44.60000000000002,0.0113959999999999
44.80000000000001,0.013446
45.0,0.0167700000000001
45.19999999999999,0.0173610000000001
45.400000000000034,0.017646
45.60000000000002,0.017805
45.80000000000001,0.017999
46.0,0.0167260000000002
46.19999999999999,0.016461
46.400000000000034,0.015746
46.60000000000002,0.0148719999999999
46.80000000000001,0.01404
47.0,0.0125830000000002
47.19999999999999,0.011492
47.400000000000034,0.011387
47.60000000000002,0.011524
47.80000000000001,0.0108540000000001
48.0,0.011276
48.19999999999999,0.0114970000000003
48.400000000000034,0.0113880000000001
48.60000000000002,0.0100670000000002
48.80000000000001,0.0076810000000002
49.0,0.0072870000000002
49.19999999999999,0.0084729999999999
49.400000000000034,0.011994
49.60000000000002,0.0132730000000003
49.80000000000001,0.0165680000000003
50.0,0.0163440000000001
50.19999999999999,0.015962
50.400000000000034,0.0121580000000003
50.60000000000002,0.0107020000000002
50.80000000000001,0.0078040000000001
51.0,0.0061870000000001
51.19999999999999,0.0047209999999999
51.400000000000034,0.0055560000000003
51.60000000000002,0.0074670000000001
51.80000000000001,0.0101470000000003
52.0,0.0116849999999999
52.19999999999999,0.0134350000000003
52.400000000000034,0.0150339999999999
52.60000000000002,0.014475
52.80000000000001,0.0133900000000002
53.0,0.0135490000000002
53.19999999999999,0.01431
53.400000000000034,0.0132560000000001
53.60000000000002,0.0148220000000001
53.80000000000001,0.0149810000000001
54.0,0.015044
54.19999999999999,0.0129939999999999
54.400000000000034,0.0118300000000002
54.60000000000002,0.009376
54.80000000000001,0.0084889999999999
55.0,0.0082940000000002
55.19999999999999,0.0086820000000003
55.400000000000034,0.0085990000000002
55.60000000000002,0.0093750000000003
55.80000000000001,0.0100250000000001
56.0,0.0094590000000001
56.19999999999999,0.0082620000000002
56.400000000000034,0.0089570000000001
56.60000000000002,0.0105140000000001
56.80000000000001,0.0103780000000002
57.0,0.0114300000000002
57.19999999999999,0.012839
57.400000000000034,0.0133430000000003
57.60000000000002,0.0115130000000003
57.80000000000001,0.0126270000000001
58.0,0.011044
58.19999999999999,0.0100500000000001
58.400000000000034,0.0096280000000001
58.60000000000002,0.0104770000000002
58.80000000000001,0.010812
59.0,0.012585
59.19999999999999,0.015076
59.400000000000034,0.0153530000000001
59.60000000000002,0.015022
59.80000000000001,0.0139279999999999
60.0,0.0137050000000003
60.19999999999999,0.013649
60.400000000000034,0.015527
60.60000000000002,0.0174640000000003
60.80000000000001,0.0197260000000003
61.0,0.0209779999999999
61.19999999999999,0.0202500000000003
61.400000000000034,0.0190040000000002
61.60000000000002,0.017293
61.80000000000001,0.0160230000000001
62.00000000000006,0.0161640000000002
62.19999999999999,0.0160310000000003
62.400000000000034,0.0133020000000003
62.599999999999966,0.0113980000000002
62.80000000000001,0.0102660000000001
63.00000000000006,0.0084750000000002
63.19999999999999,0.0083710000000003
63.400000000000034,0.0094790000000002
63.599999999999966,0.0094190000000002
63.80000000000001,0.0098359999999999
64.00000000000006,0.010761
64.19999999999999,0.0109150000000002
64.40000000000003,0.0122219999999999
64.59999999999997,0.011549
64.80000000000001,0.010081
65.00000000000006,0.008194
65.19999999999999,0.005217
65.40000000000003,0.003416
65.59999999999997,0.0043710000000003
65.80000000000001,0.0060930000000003
66.00000000000006,0.0089860000000001
66.19999999999999,0.013268
66.40000000000003,0.0166520000000001
66.59999999999997,0.0191829999999999
66.80000000000001,0.0217550000000001
67.00000000000006,0.0213179999999999
67.19999999999999,0.0213689999999999
67.40000000000003,0.020235
67.59999999999997,0.0181530000000003
67.80000000000001,0.0138009999999999
68.00000000000006,0.0118080000000002
68.19999999999999,0.0108399999999999
68.40000000000003,0.010577
68.59999999999997,0.011257
68.80000000000001,0.0127619999999999
69.00000000000006,0.0145020000000002
69.19999999999999,0.0147060000000003
69.40000000000003,0.0127749999999999
69.59999999999997,0.0125640000000002
69.80000000000001,0.013414
70.00000000000006,0.0139360000000001
70.19999999999999,0.0128410000000003
70.40000000000003,0.0134739999999999
70.59999999999997,0.013557
70.80000000000001,0.0141090000000003
71.00000000000006,0.0137520000000002
71.19999999999999,0.0135900000000002
71.40000000000003,0.0142869999999999
71.59999999999997,0.0154360000000002
71.80000000000001,0.0157250000000002
72.00000000000006,0.0147680000000001
72.19999999999999,0.0150900000000002
72.40000000000003,0.0163800000000002
72.59999999999997,0.0160569999999999
72.80000000000001,0.0138880000000001
73.00000000000006,0.0138390000000003
73.19999999999999,0.0142380000000001
73.40000000000003,0.0118930000000001
73.59999999999997,0.0099770000000001
73.80000000000001,0.009687
74.00000000000006,0.0092190000000003
74.19999999999999,0.0081000000000002
74.40000000000003,0.0085459999999999
74.59999999999997,0.0099
74.80000000000001,0.0098820000000001
75.00000000000006,0.0088190000000003
75.19999999999999,0.0078580000000001
75.40000000000003,0.006421
75.59999999999997,0.0060740000000003
75.80000000000001,0.0066510000000001
76.00000000000006,0.007238
76.19999999999999,0.0083350000000002
76.40000000000003,0.0106710000000003
76.59999999999997,0.0107760000000003
76.80000000000001,0.0102280000000001
77.00000000000006,0.0094739999999999
77.19999999999999,0.010545
77.40000000000003,0.0101599999999999
77.59999999999997,0.0091849999999999
77.80000000000001,0.0076590000000003
78.00000000000006,0.0094480000000003
78.19999999999999,0.0112930000000002
78.40000000000003,0.0122340000000003
78.59999999999997,0.0139650000000002
78.80000000000001,0.0168289999999999
79.00000000000006,0.0183790000000003
79.19999999999999,0.016191
79.40000000000003,0.0133119999999999
79.59999999999997,0.010939
79.80000000000001,0.0103270000000001
80.00000000000006,0.0084410000000003
80.19999999999999,0.0073419999999999
80.40000000000003,0.009417
80.59999999999997,0.0118900000000001
80.80000000000001,0.0131190000000001
81.00000000000006,0.0123269999999999
81.19999999999999,0.0124590000000002
81.40000000000003,0.0128030000000003
81.59999999999997,0.0130570000000003
81.80000000000001,0.0134039999999999
82.00000000000006,0.015584
82.19999999999999,0.0179530000000003
82.40000000000003,0.0181880000000003
82.59999999999997,0.0190559999999999
82.80000000000001,0.0192070000000001
83.00000000000006,0.020191
83.19999999999999,0.0192650000000003
83.40000000000003,0.0184790000000001
83.59999999999997,0.0159980000000001
83.80000000000001,0.01418
84.00000000000006,0.0112990000000001
84.19999999999999,0.0094310000000001
84.40000000000003,0.0080439999999999
84.59999999999997,0.007565
84.80000000000001,0.0081350000000002
85.00000000000006,0.0107129999999999
85.19999999999999,0.0129730000000001
85.40000000000003,0.0157910000000001
85.59999999999997,0.0182670000000002
85.80000000000001,0.0181810000000002
86.00000000000006,0.0159169999999999
86.19999999999999,0.0143440000000003
86.40000000000003,0.0131520000000002
86.59999999999997,0.0132880000000001
86.80000000000001,0.01438
87.00000000000006,0.0167950000000001
87.19999999999999,0.0175089999999999
87.40000000000003,0.0151020000000001
87.59999999999997,0.0111540000000003
87.80000000000001,0.0096560000000001
88.00000000000006,0.0087670000000001
88.19999999999999,0.0070450000000001
88.40000000000003,0.0057680000000002
88.59999999999997,0.0057970000000002
88.80000000000001,0.0042759999999999
89.00000000000006,0.0041350000000002
89.19999999999999,0.0070490000000003
89.40000000000003,0.012639
89.59999999999997,0.0151750000000001
89.80000000000001,0.0155530000000001
90.00000000000006,0.0112080000000003
90.2,0.0065140000000001
90.40000000000003,0.0018510000000002
90.59999999999997,-0.0006839999999996
90.8,0.000477
91.00000000000006,0.0056549999999999
91.2,0.0107730000000003
91.40000000000003,0.0142649999999999
91.59999999999997,0.015883
91.8,0.013992
92.00000000000006,0.0095750000000003
92.2,0.0057119999999999
92.40000000000003,0.0027410000000003
92.59999999999997,0.0007700000000001
92.8,-0.00028
93.00000000000006,0.0009130000000001
93.2,0.0010480000000003
93.40000000000003,0.0015100000000001
93.59999999999997,0.003667
93.8,0.0054130000000003
94.00000000000006,0.0047730000000001
94.2,0.0047130000000001
94.40000000000003,0.0040270000000002
94.59999999999997,0.0018890000000002
94.8,0.0012370000000001
95.00000000000006,-0.0007419999999997
95.2,-0.0012369999999997
95.40000000000003,-0.0004859999999999
95.59999999999997,0.0033180000000001
95.8,0.0076439999999999
96.00000000000006,0.0123160000000002
96.2,0.0140760000000002
96.40000000000003,0.0152830000000001
96.59999999999997,0.012143
96.8,0.0060010000000003
97.00000000000006,0.002904
97.2,0.0037549999999999
97.40000000000003,0.003473
97.59999999999997,0.0030430000000003
97.8,0.0043760000000001
98.00000000000006,0.0054730000000002
98.2,0.0052860000000003
98.40000000000003,0.0038970000000002
98.59999999999997,0.0046870000000001
98.8,0.0053170000000002
99.00000000000006,0.0063020000000002
99.2,0.0047740000000002
99.40000000000003,0.0054820000000002
99.59999999999997,0.006113
99.8,0.0064980000000001
100.00000000000006,0.005859
100.2,0.0077370000000001
100.40000000000003,0.008566
100.59999999999997,0.0090630000000002
100.8,0.008197
101.00000000000006,0.0084680000000001
101.2,0.0075860000000003
101.40000000000003,0.0068010000000002
101.59999999999997,0.0054880000000001
101.8,0.0062220000000001
102.00000000000006,0.0070730000000001
102.2,0.0084330000000001
102.40000000000003,0.0117030000000002
102.59999999999997,0.0139810000000002
102.8,0.0157690000000001
103.00000000000006,0.0163550000000003
103.2,0.0168400000000001
103.40000000000003,0.0139970000000002
103.59999999999997,0.0134660000000002
103.8,0.0138899999999999
104.00000000000006,0.0126790000000003
104.2,0.0095770000000001
104.40000000000003,0.008893
104.59999999999997,0.008089
104.8,0.007082
105.00000000000006,0.0088289999999999
105.2,0.0105090000000003
105.40000000000003,0.009141
105.59999999999997,0.0078370000000003
105.8,0.006958
106.00000000000006,0.0060280000000001
106.2,0.0071660000000002
106.40000000000003,0.0101020000000002
106.59999999999997,0.0114530000000003
106.8,0.0108410000000001
107.00000000000006,0.0082889999999999
107.2,0.0064570000000001
107.40000000000003,0.0063550000000001
107.59999999999997,0.0065159999999999
107.8,0.007098
108.00000000000006,0.0084180000000002
108.2,0.0091550000000002
108.40000000000003,0.009112
108.59999999999997,0.0074499999999999
108.8,0.0060730000000002
109.00000000000006,0.00591
109.2,0.0042240000000002
109.40000000000003,0.0017260000000001
109.59999999999997,-0.0002229999999996
109.8,-0.001859
110.00000000000006,-0.0047459999999999
110.2,-0.0054989999999999
110.40000000000003,-0.0039529999999996
110.59999999999997,-0.0013489999999998
110.8,0.0017750000000003
111.00000000000006,0.0054440000000002
111.2,0.0088410000000003
111.40000000000003,0.0102420000000003
111.59999999999997,0.0110339999999999
111.8,0.0093520000000002
112.00000000000006,0.006663
112.2,0.003829
112.40000000000003,0.0015840000000002
112.59999999999997,0.000912
112.8,0.0014790000000002
113.00000000000006,0.0025319999999999
113.2,0.002993
113.40000000000003,0.0014039999999999
113.59999999999997,0.0005190000000001
113.8,0.0009140000000003
114.00000000000006,0.0012310000000002
114.2,0.000801
114.40000000000003,0.0018280000000001
114.59999999999997,0.0020999999999999
114.8,0.0028640000000001
115.00000000000006,0.0049480000000001
115.2,0.007384
115.40000000000003,0.0096210000000001
115.59999999999997,0.011406
115.8,0.011959
116.00000000000006,0.011835
116.2,0.0113290000000003
116.40000000000003,0.0114240000000003
116.59999999999997,0.0096929999999999
116.8,0.0086840000000001
117.00000000000006,0.0066540000000001
117.2,0.0063060000000003
117.40000000000003,0.005255
117.59999999999997,0.0067910000000002
117.8,0.0074970000000003
118.00000000000006,0.009319
118.2,0.0089490000000003
118.40000000000003,0.0089019999999999
118.59999999999997,0.0077250000000002
118.8,0.0059919999999999
119.00000000000006,0.0030000000000001
119.2,0.0019740000000001
119.40000000000003,0.0012430000000001
119.59999999999997,0.0015720000000003
119.8,0.0033560000000001
120.00000000000006,0.0075130000000003
120.2,0.0109270000000001
120.40000000000003,0.0139800000000001
120.59999999999997,0.0150240000000003
120.8,0.014701
121.00000000000006,0.013274
121.2,0.0123450000000002
121.40000000000003,0.0121350000000002
121.59999999999997,0.0125420000000002
121.8,0.0121010000000003
122.00000000000006,0.0114879999999999
122.2,0.011832
122.40000000000003,0.0106230000000002
122.59999999999997,0.011492
122.8,0.0140930000000003
123.00000000000006,0.0162870000000001
123.2,0.0169870000000003
123.40000000000003,0.0185460000000001
123.59999999999997,0.0174480000000003
123.8,0.0144250000000001
124.00000000000006,0.0113950000000002
124.2,0.009322
124.40000000000003,0.0069090000000002
124.59999999999997,0.0045110000000003
124.8,0.0045610000000002
125.00000000000006,0.0055370000000003
125.2,0.004706
125.40000000000003,0.0033160000000003
125.59999999999997,0.0030179999999999
125.8,0.0026070000000002
126.00000000000006,0.002793
126.2,0.0038800000000001
126.40000000000003,0.005519
126.59999999999997,0.0089559999999999
126.8,0.010596
127.00000000000006,0.010396
127.2,0.0079450000000003
127.40000000000003,0.0072420000000001
127.59999999999997,0.0048410000000003
127.8,0.0042500000000003
128.00000000000006,0.002466
128.2,0.0029050000000001
128.40000000000003,0.0007700000000001
128.59999999999997,-8.900000000000574e-05
128.8,-0.0001159999999997
129.00000000000006,0.0002539999999999
129.2,0.0008350000000003
129.40000000000003,0.0030190000000001
129.59999999999997,0.0028909999999999
129.8,0.0012370000000001
130.00000000000006,0.002202
130.2,0.0034550000000002
130.40000000000003,0.004833
130.59999999999997,0.0069799999999999
130.8,0.0104420000000002
131.00000000000006,0.0130669999999999
131.2,0.0151989999999999
131.40000000000003,0.0142980000000001
131.59999999999997,0.012645
131.8,0.0089209999999999
132.00000000000006,0.0051230000000002
132.2,0.0005969999999999
132.40000000000003,-0.00048
132.59999999999997,-0.0010209999999997
132.8,0.00028
133.00000000000006,0.0027150000000002
133.2,0.0069810000000001
133.40000000000003,0.0102010000000003
133.59999999999997,0.013795
133.8,0.014132
134.00000000000006,0.009837
134.2,0.0048620000000001
134.40000000000003,0.0017710000000001
134.59999999999997,0.0005870000000003
134.8,0.000385
135.00000000000006,0.0026740000000002
135.2,0.002574
135.40000000000003,0.0030390000000002
135.59999999999997,0.0017089999999999
135.8,0.001214
136.00000000000006,0.0020480000000002
136.2,0.0046680000000001
136.40000000000003,0.0065539999999999
136.59999999999997,0.0069590000000001
136.8,0.008636
137.00000000000006,0.0106100000000002
137.2,0.0132530000000001
137.40000000000003,0.01445
137.59999999999997,0.0177710000000002
137.8,0.0195990000000003
138.00000000000006,0.0187780000000001
138.2,0.0160040000000001
138.40000000000003,0.0111130000000003
138.59999999999997,0.006148
138.8,0.0024250000000001
139.00000000000006,0.000626
139.2,-0.0011369999999999
139.40000000000003,-7.899999999994023e-05
139.59999999999997,0.001986
139.8,0.0040090000000003
140.00000000000006,0.007085
140.2,0.0086530000000002
140.40000000000003,0.010072
140.59999999999997,0.0096600000000002
140.8,0.007803
141.00000000000006,0.003775
141.2,0.002116
141.40000000000003,0.002075
141.59999999999997,0.0031920000000003
141.8,0.0045760000000001
142.00000000000006,0.0079850000000001
142.2,0.0115920000000002
142.40000000000003,0.0112010000000002
142.59999999999997,0.0077760000000002
142.8,0.0047650000000003
143.00000000000006,0.0008090000000002
143.2,-0.0028009999999998
143.40000000000003,-0.0050839999999996
143.59999999999997,-0.0045279999999996
143.8,-0.0039309999999996
144.00000000000006,-0.0027149999999998
144.2,-0.0017929999999997
144.40000000000003,-0.0019909999999998
144.59999999999997,-0.0035369999999996
144.8,-0.0044559999999997
145.00000000000006,-0.006167
145.2,-0.0072459999999998
145.40000000000003,-0.0043489999999999
145.59999999999997,0.0011960000000001
145.8,0.0058540000000002
146.00000000000006,0.008982
146.2,0.0096560000000001
146.40000000000003,0.0076210000000003
146.59999999999997,0.004661
146.8,0.003724
147.00000000000006,0.0039860000000002
147.2,0.0057249999999999
147.40000000000003,0.0087559999999999
147.59999999999997,0.010142
147.8,0.0109609999999999
148.00000000000006,0.0108800000000002
148.2,0.009541
148.40000000000003,0.0065110000000001
148.59999999999997,0.0044940000000002
148.8,0.0022680000000003
149.00000000000006,0.0025150000000002
149.2,0.0046490000000001
149.40000000000003,0.007362
149.59999999999997,0.0078439999999999
149.8,0.0057530000000003
150.00000000000006,0.0020000000000002
150.2,0.0004900000000001
150.40000000000003,-0.0009059999999996
150.59999999999997,0.0015610000000001
150.8,0.0038500000000003
151.00000000000006,0.005468
151.2,0.0055770000000001
151.40000000000003,0.0061240000000002
151.59999999999997,0.0062540000000002
151.8,0.00753
152.00000000000006,0.009411
152.2,0.0097170000000001
152.40000000000003,0.0084270000000001
152.59999999999997,0.0034520000000002
152.8,0.0002379999999999
153.00000000000006,-0.0037709999999999
153.2,-0.0060249999999997
153.40000000000003,-0.0052829999999999
153.59999999999997,-0.0014399999999996
153.8,0.0001860000000002
154.00000000000006,0.0012130000000003
154.2,0.0011080000000003
154.40000000000003,-0.0007099999999997
154.59999999999997,-0.0024449999999998
154.8,-0.0030149999999999
155.00000000000006,-0.0015499999999999
155.2,0.0003269999999999
155.40000000000003,0.0027430000000001
155.59999999999997,0.0049800000000002
155.8,0.0070240000000003
156.00000000000006,0.008359
156.2,0.0109850000000002
156.40000000000003,0.010383
156.59999999999997,0.0086250000000003
156.8,0.0064269999999999
157.00000000000006,0.0055659999999999
157.2,0.0024090000000001
157.40000000000003,0.0009320000000001
157.59999999999997,0.000871
157.8,0.0020420000000003
158.00000000000006,0.0022040000000003
158.2,0.001729
158.40000000000003,0.0024030000000001
158.59999999999997,0.0029860000000003
158.8,0.0018700000000002
159.00000000000006,0.0018359999999999
159.2,0.002787
159.40000000000003,0.0047520000000003
159.59999999999997,0.0054419999999999
159.8,0.0075070000000003
160.00000000000006,0.0078580000000001
160.2,0.008359
160.40000000000003,0.0077580000000003
160.59999999999997,0.0084520000000001
160.8,0.0078599999999999
161.00000000000006,0.008515
161.2,0.008718
161.40000000000003,0.0093640000000001
161.59999999999997,0.0102170000000003
161.8,0.012575
162.00000000000006,0.0138310000000001
162.2,0.0146070000000002
162.40000000000003,0.0124550000000001
162.59999999999997,0.0103870000000001
162.8,0.0083520000000003
163.00000000000006,0.0073760000000002
163.2,0.0075830000000003
163.40000000000003,0.0086110000000001
163.59999999999997,0.0092929999999999
163.8,0.010097
164.00000000000006,0.0099210000000002
164.2,0.0095390000000001
164.40000000000003,0.011587
164.59999999999997,0.013106
164.8,0.0124270000000001
165.00000000000006,0.0113700000000003
165.2,0.0093720000000003
165.40000000000003,0.0077350000000002
165.59999999999997,0.0071050000000001
165.8,0.0068930000000002
166.00000000000006,0.0057770000000001
166.2,0.0053200000000002
166.40000000000003,0.005713
166.59999999999997,0.0038310000000003
166.8,0.0029310000000002
167.00000000000006,0.0031670000000003
167.2,0.0031240000000001
167.40000000000003,0.0021400000000002
167.59999999999997,0.0015490000000002
167.8,0.0024809999999999
168.00000000000006,0.0031480000000003
168.2,0.0029660000000002
168.40000000000003,0.0021110000000001
168.59999999999997,0.0013689999999999
168.8,0.0002470000000003
169.00000000000006,0.000334
169.2,0.001106
169.40000000000003,0.0004189999999999
169.59999999999997,-0.0003659999999996
169.8,-0.0011939999999999
170.00000000000006,-0.0020509999999998
170.2,-0.0022869999999999
170.40000000000003,-0.0016849999999997
170.59999999999997,-0.0006189999999999
170.8,-0.0001029999999997
171.00000000000006,-0.0003079999999999
171.2,-0.0007959999999997
171.40000000000003,-0.0004219999999999
171.59999999999997,0.0001839999999999
171.8,7.599999999996498e-05
172.00000000000006,0.0010920000000003
172.2,0.0035510000000003
172.40000000000003,0.0057610000000001
172.59999999999997,0.0093370000000003
172.8,0.0125010000000003
173.00000000000006,0.0131520000000002
173.2,0.0112700000000001
173.40000000000003,0.0071430000000001
173.59999999999997,0.0012920000000002
173.8,-0.003047
174.00000000000006,-0.0038999999999997
174.2,-0.0027619999999997
174.40000000000003,0.0013490000000002
174.59999999999997,0.0034100000000001
174.8,0.0071120000000002
175.00000000000006,0.0084880000000002
175.2,0.0091810000000003
175.40000000000003,0.0069069999999999
175.59999999999997,0.0080170000000001
175.8,0.0060800000000003
176.00000000000006,0.0043390000000003
176.2,0.0009800000000002
176.40000000000003,0.0017260000000001
176.59999999999997,0.0015789999999999
176.8,0.0023870000000001
177.00000000000006,0.0031540000000003
177.2,0.0057530000000003
177.40000000000003,0.005786
177.59999999999997,0.004194
177.8,0.0022570000000001
178.00000000000006,0.0004250000000003
178.2,-0.0007029999999996
178.40000000000003,-0.0020829999999998
178.59999999999997,-0.0015979999999999
178.8,-0.0010219999999998
179.00000000000006,-0.0004839999999997
179.2,-0.0004309999999998
179.40000000000003,0.0007140000000003
179.59999999999997,0.0028529999999999
179.8,0.0054739999999999
180.00000000000006,0.0064619999999999
180.2,0.0043410000000001
180.40000000000003,0.0006889999999999
180.6,-0.0043109999999999
180.8,-0.0090749999999997
181.00000000000009,-0.0120299999999997
181.2,-0.0104379999999997
181.40000000000003,-0.007101
181.6,-0.0040679999999997
181.8,-0.0004859999999999
182.00000000000009,0.0033820000000002
182.2,0.0053640000000001
182.40000000000003,0.00529
182.6,0.0037700000000002
182.8,6.700000000003925e-05
183.00000000000009,-0.0017779999999998
183.2,-0.0032889999999996
183.40000000000003,-0.0042149999999998
183.6,-0.0028769999999997
183.8,-0.0004139999999996
184.00000000000009,-0.0006669999999999
184.2,-0.0018189999999997
184.40000000000003,-0.0022669999999997
184.6,-0.0034129999999996
184.8,-0.0047929999999998
185.00000000000009,-0.0042979999999999
185.2,-0.0027689999999997
185.40000000000003,-0.0010729999999998
185.6,-0.0001579999999998
185.8,0.000566
186.00000000000009,-0.000572
186.2,-0.0027759999999998
186.40000000000003,-0.0039629999999997
186.6,-0.0038599999999999
186.8,-0.0030889999999996
187.00000000000009,-0.0026189999999997
187.2,-0.0023949999999999
187.40000000000003,-0.0035709999999999
187.6,-0.0052669999999999
187.8,-0.0069839999999996
188.00000000000009,-0.0078239999999998
188.2,-0.0077919999999997
188.40000000000003,-0.006885
188.6,-0.0047859999999997
188.8,-0.0036389999999997
189.00000000000009,-0.0028069999999997
189.2,-0.0010769999999999
189.40000000000003,0.0014440000000002
189.6,0.0049170000000002
189.8,0.0069000000000003
190.00000000000009,0.0089580000000002
190.2,0.0086050000000001
190.40000000000003,0.0077040000000003
190.6,0.0042780000000002
190.8,0.0032210000000003
191.00000000000009,0.0028209999999999
191.2,0.0034990000000001
191.40000000000003,0.0032309999999999
191.6,0.0011990000000001
191.8,-0.0001889999999997
192.00000000000009,-0.0024949999999996
192.2,-0.0035089999999997
192.40000000000003,-0.0057519999999997
192.6,-0.0049019999999999
192.8,-0.004305
193.00000000000009,-0.0029489999999996
193.2,-0.0038169999999997
193.40000000000003,-0.0026049999999999
193.6,-0.0003989999999998
193.8,0.0021720000000002
194.00000000000009,0.0047140000000003
194.2,0.0088799999999999
194.40000000000003,0.0097880000000003
194.6,0.0098410000000002
194.8,0.0094990000000003
195.00000000000009,0.0087950000000001
195.2,0.006939
195.40000000000003,0.0062740000000003
195.6,0.0053499999999999
195.8,0.0028520000000002
196.00000000000009,-0.0007669999999997
196.2,-0.0033189999999998
196.40000000000003,-0.0034809999999998
196.6,-0.0042889999999999
196.8,-0.004823
197.00000000000009,-0.0038149999999999
197.2,-0.0027129999999999
197.40000000000003,-0.0036929999999997
197.6,-0.0040919999999999
197.8,-0.0047599999999996
198.00000000000009,-0.0039149999999996
198.2,-0.0032889999999996
198.40000000000003,-0.0022889999999997
198.6,-0.0018769999999999
198.8,-0.0020099999999998
199.00000000000009,-0.0039479999999998
199.2,-0.0049219999999996
199.40000000000003,-0.0032099999999997
199.6,-0.001722
199.8,-0.0002519999999996
200.00000000000009,0.0005680000000003
200.2,0.0004140000000001
200.40000000000003,-0.0017909999999998
200.6,-0.0020359999999999
200.8,-0.0014559999999996
201.00000000000009,-0.0003669999999997
201.2,-0.000896
201.40000000000003,-0.001271
201.6,-0.002707
201.8,-0.0021559999999998
202.00000000000009,-0.0030359999999998
202.2,-0.0024809999999999
202.40000000000003,-0.0025489999999996
202.6,-0.0008169999999996
202.8,-0.00048
203.00000000000009,0.0002379999999999
203.2,-9.399999999981644e-05
203.40000000000003,-0.000445
203.6,-0.0014289999999999
203.8,-0.0025889999999999
204.00000000000009,-0.0002059999999999
204.2,0.002993
204.40000000000003,0.0057400000000003
204.6,0.005065
204.8,0.0047570000000001
205.00000000000009,0.0022730000000001
205.2,0.001919
205.40000000000003,0.0024030000000001
205.6,0.0032550000000002
205.8,0.002205
206.00000000000009,0.0011270000000003
206.2,-0.0011079999999998
206.40000000000003,-0.0031419999999999
206.6,-0.0026139999999998
206.8,-0.0011069999999997
207.00000000000009,-0.0010859999999999
207.2,0.0005900000000003
207.40000000000003,0.0033660000000002
207.6,0.0033640000000003
207.8,0.0034089999999999
208.00000000000009,0.0050700000000003
208.2,0.004715
208.40000000000003,0.0037880000000001
208.6,0.0039730000000002
208.8,0.0042840000000001
209.00000000000009,0.0034050000000003
209.2,0.0019010000000001
209.40000000000003,0.0003930000000003
209.6,-0.0008869999999996
209.8,-0.0008239999999997
210.00000000000009,0.002428
210.2,0.0065180000000002
210.40000000000003,0.0076550000000001
210.6,0.00835
210.8,0.0085000000000001
211.00000000000009,0.0061910000000002
211.2,0.0042699999999999
211.40000000000003,0.0030670000000001
211.6,0.0020830000000002
211.8,0.0013840000000002
212.00000000000009,0.0009040000000002
212.2,-3.399999999986747e-05
212.40000000000003,0.001732
212.6,0.0032130000000001
212.8,0.0035389999999999
213.00000000000009,0.003619
213.2,0.0038560000000003
213.40000000000003,0.0020820000000001
213.6,1.100000000020529e-05
213.8,-0.0017289999999996
214.00000000000009,-0.0012299999999996
214.2,-4.599999999976845e-05
214.40000000000003,0.0014820000000002
214.6,0.0045200000000003
214.8,0.0067090000000002
215.00000000000009,0.0067720000000002
215.2,0.0048750000000001
215.40000000000003,0.003673
215.6,0.0020850000000001
215.8,-0.0005999999999999
216.00000000000009,-0.0026259999999997
216.2,-0.0036069999999996
216.40000000000003,-0.0035199999999999
216.6,-0.0029909999999997
216.8,-0.0004909999999997
217.00000000000009,0.0016770000000003
217.2,0.0040780000000002
217.40000000000003,0.0055080000000002
217.6,0.0052600000000002
217.8,0.0041010000000003
218.00000000000009,0.003695
218.2,0.002895
218.40000000000003,0.0016960000000003
218.6,0.0009939999999999
218.8,0.0021400000000002
219.00000000000009,0.0017010000000001
219.2,-0.0002059999999999
219.40000000000003,-0.0012779999999996
219.6,-0.0021299999999997
219.8,-0.0013679999999998
220.00000000000009,0.0011719999999999
220.2,0.0047710000000003
220.40000000000003,0.0065600000000003
220.6,0.0063509999999999
220.8,0.005236
221.00000000000009,0.002342
221.2,-0.0006539999999999
221.40000000000003,-0.003778
221.6,-0.0036229999999997
221.8,-0.0028529999999999
222.00000000000009,-0.0022969999999999
222.2,-0.0005819999999996
222.40000000000003,0.0038390000000001
222.6,0.0079200000000003
222.8,0.0089270000000003
223.00000000000009,0.0089380000000001
223.2,0.0090850000000002
223.40000000000003,0.0073470000000002
223.6,0.0047909999999999
223.8,0.0024190000000001
224.00000000000009,0.0025170000000001
224.2,0.0008160000000003
224.40000000000003,-0.0002979999999999
224.6,-0.0008699999999999
224.8,-0.0009789999999996
225.00000000000009,-0.0008619999999996
225.2,0.0007290000000002
225.40000000000003,0.0010180000000001
225.6,0.0015580000000001
225.8,0.0020550000000003
226.00000000000009,0.0020640000000002
226.2,0.001163
226.40000000000003,0.0002349999999999
226.6,-0.0024299999999999
226.8,-0.005004
227.00000000000009,-0.005233
227.2,-0.00509
227.40000000000003,-0.0042439999999999
227.6,-0.0035819999999997
227.8,-0.0017839999999997
228.00000000000009,-0.002558
228.2,-0.0029569999999998
228.40000000000003,-0.0028739999999998
228.6,-0.0028229999999997
228.8,-0.0021039999999996
229.00000000000009,-0.0021959999999996
229.2,-0.0012939999999996
229.40000000000003,-0.0009179999999999
229.6,-2.9999999999752447e-05
229.8,-0.0009719999999999
230.00000000000009,-0.0009829999999997
230.2,-0.0009549999999998
230.40000000000003,-0.0009779999999999
230.6,-0.001058
230.8,-0.0004309999999998
231.00000000000009,-0.0005939999999999
231.2,-0.0013959999999997
231.40000000000003,-0.0010419999999999
231.6,0.0002360000000001
231.8,-4.8000000000048e-05
232.00000000000009,-0.0002939999999997
232.2,0.0002710000000001
232.40000000000003,-0.0005449999999997
232.6,-0.0025349999999999
232.8,-0.0032559999999999
233.00000000000009,-0.0014759999999998
233.2,-0.0011189999999996
233.40000000000003,-0.0007929999999998
233.6,0.000366
233.8,0.0015140000000002
234.00000000000009,0.0004660000000002
234.2,-0.001338
234.40000000000003,-0.0025749999999997
234.6,-0.0022999999999999
234.8,-0.0037199999999999
235.00000000000009,-0.0053349999999996
235.2,-0.007352
235.40000000000003,-0.0071769999999999
235.6,-0.0079789999999997
235.8,-0.0061039999999996
236.00000000000009,-0.0033919999999998
236.2,-0.0005639999999997
236.40000000000003,-0.0004219999999999
236.6,-0.0001269999999999
236.8,0.0006150000000002
237.00000000000009,0.001592
237.2,0.00137
237.40000000000003,0.0023029999999999
237.6,0.0024570000000001
237.8,0.0007520000000003
238.00000000000009,-0.0013899999999997
238.2,-0.001862
238.40000000000003,-0.0027919999999999
238.6,-0.0036869999999997
238.8,-0.0060259999999998
239.00000000000009,-0.0091369999999999
239.2,-0.0090619999999996
239.40000000000003,-0.0082919999999999
239.6,-0.0076929999999997
239.8,-0.0063339999999998
240.00000000000009,-0.0042339999999998
240.2,-0.0070899999999998
240.40000000000003,-0.009608
240.6,-0.0110329999999998
240.8,-0.0095709999999997
241.00000000000009,-0.0088679999999996
241.2,-0.0052829999999999
241.40000000000003,-0.0021199999999996
241.6,-0.0005129999999997
241.8,-0.0011729999999996
242.00000000000009,-0.0009689999999999
242.2,-0.0025889999999999
242.40000000000003,-0.0036939999999998
242.6,-0.002205
242.8,-0.0009419999999997
243.00000000000009,-0.0010029999999998
243.2,-0.0019919999999999
243.40000000000003,-0.0037599999999997
243.6,-0.0055619999999998
243.8,-0.0061279999999999
244.00000000000009,-0.0062839999999999
244.2,-0.0042709999999996
244.40000000000003,-0.0016939999999996
244.6,-0.0008619999999996
244.8,-0.0014199999999999
245.00000000000009,-0.0005969999999999
245.2,0.0004940000000002
245.40000000000003,-0.000645
245.6,-0.0027359999999996
245.8,-0.00197
246.00000000000009,-0.000175
246.2,-0.0003679999999999
246.40000000000003,0.0010769999999999
246.6,0.003114
246.8,0.0041139999999999
247.00000000000009,0.0036240000000002
247.2,0.0034940000000003
247.40000000000003,0.0012470000000002
247.6,-0.0013299999999998
247.8,-0.0031699999999998
248.00000000000009,-0.0055309999999999
248.2,-0.0054389999999999
248.40000000000003,-0.0028559999999999
248.6,0.0016500000000001
248.8,0.0038590000000002
249.00000000000009,0.004588
249.2,0.003959
249.40000000000003,0.0030050000000003
249.6,-8.699999999972619e-05
249.8,-0.0026279999999996
250.00000000000009,-0.0034469999999999
250.2,-0.0003379999999997
250.40000000000003,0.0003040000000003
250.6,0.0025520000000001
250.8,0.0027989999999999
251.00000000000009,0.0038390000000001
251.2,0.000286
251.40000000000003,-0.0007969999999999
251.6,-0.0046879999999998
251.8,-0.0050149999999997
252.00000000000009,-0.0064229999999998
252.2,-0.0059919999999999
252.40000000000003,-0.0070879999999999
252.6,-0.0054209999999996
252.8,-0.0051069999999997
253.00000000000009,-0.0022869999999999
253.2,-0.0012629999999997
253.40000000000003,-0.000658
253.6,-0.0012209999999996
253.8,0.0007360000000002
254.00000000000009,0.0004560000000002
254.2,-0.0011389999999997
254.40000000000003,-0.0019869999999997
254.6,-0.0031189999999998
254.8,-0.005722
255.00000000000009,-0.007743
255.2,-0.0075539999999998
255.40000000000003,-0.0053989999999997
255.6,-0.0019239999999998
255.8,0.001446
256.00000000000006,0.004429
256.2,0.0058500000000001
256.40000000000003,0.005891
256.6,0.0053560000000003
256.8,0.0030680000000002
257.00000000000006,0.0003429999999999
257.2,-0.0009549999999998
257.40000000000003,-0.0012769999999999
257.6,-0.0017789999999999
257.8,-0.0008079999999996
258.00000000000006,-7.00000000000145e-05
258.2,0.0012790000000002
258.40000000000003,0.0003730000000001
258.6,-0.0003389999999998
258.8,-0.0022679999999999
259.00000000000006,-0.0036049999999998
259.2,-0.0060819999999996
259.40000000000003,-0.0064159999999997
259.6,-0.0067219999999998
259.8,-0.0056709999999999
260.00000000000006,-0.006275
260.2,-0.0060439999999997
260.40000000000003,-0.0062149999999996
260.6,-0.006164
260.8,-0.0058089999999997
261.00000000000006,-0.0041769999999998
261.2,-0.0021599999999999
261.40000000000003,-0.0009859999999997
261.6,0.000807
261.8,0.000671
262.00000000000006,0.0001420000000003
262.2,-0.0001769999999998
262.40000000000003,0.0002410000000003
262.6,0.000296
262.8,0.0020320000000002
263.00000000000006,0.0037500000000001
263.2,0.0044650000000001
263.40000000000003,0.0044500000000002
263.6,0.003587
263.8,0.0002950000000003
264.00000000000006,-0.0014549999999999
264.2,-0.0045299999999999
264.40000000000003,-0.0058059999999997
264.6,-0.0055299999999998
264.8,-0.0033029999999998
265.00000000000006,-0.0023339999999998
265.2,1.6000000000016e-05
265.40000000000003,0.0007369999999999
265.6,-0.0010689999999997
265.8,-0.0037529999999996
266.00000000000006,-0.006205
266.2,-0.0061329999999997
266.40000000000003,-0.0054789999999997
266.6,-0.0034429999999998
266.8,-0.0027339999999997
267.00000000000006,-0.000661
267.2,-0.000661
267.40000000000003,-0.0024629999999996
267.6,-0.0041469999999996
267.8,-0.0027079999999997
268.00000000000006,-0.0025909999999997
268.2,-0.0033259999999999
268.40000000000003,-0.0047419999999998
268.6,-0.0057369999999998
268.8,-0.0063309999999998
269.00000000000006,-0.00658
269.2,-0.0072579999999997
269.40000000000003,-0.0062879999999996
269.6,-0.0048909999999997
269.8,-0.0050069999999999
270.00000000000006,-0.0047819999999996
270.2,-0.0031799999999999
270.40000000000003,-0.00211
270.6,-0.0035589999999996
270.8,-0.0052239999999996
271.00000000000006,-0.0047679999999998
271.2,-0.004461
271.40000000000003,-0.0038979999999999
271.6,-0.0016639999999998
271.8,0.0009680000000003
272.00000000000006,0.0001290000000002
272.2,-0.0004589999999997
272.40000000000003,0.0002120000000003
272.6,0.0007719999999999
272.8,0.0013309999999999
273.00000000000006,0.0011510000000001
273.2,0.0005969999999999
273.40000000000003,-0.0021009999999996
273.6,-0.0043639999999998
273.8,-0.0070029999999996
274.00000000000006,-0.0082549999999996
274.2,-0.0094669999999998
274.40000000000003,-0.0077529999999996
274.6,-0.004445
274.8,-0.0022599999999997
275.00000000000006,0.0002750000000002
275.2,0.000804
275.40000000000003,0.000331
275.6,-0.001989
275.8,-0.0015389999999997
276.00000000000006,-0.001649
276.2,-0.0028349999999996
276.40000000000003,-0.0046819999999998
276.6,-0.0047369999999999
276.8,-0.0056729999999998
277.00000000000006,-0.0053039999999997
277.2,-0.0021879999999998
277.40000000000003,0.0016290000000003
277.6,0.002726
277.8,0.0027430000000001
278.00000000000006,0.0018630000000001
278.2,0.0007010000000002
278.40000000000003,-0.0012229999999999
278.6,-0.0019339999999998
278.8,-0.0017759999999999
279.00000000000006,-0.0024729999999997
279.2,-0.0005209999999999
279.40000000000003,0.0007130000000001
279.6,0.0021180000000002
279.8,0.001862
280.00000000000006,0.0019029999999999
280.2,0.0001380000000001
280.40000000000003,0.0009380000000001
280.6,0.0024830000000002
280.8,0.0033000000000003
281.00000000000006,0.0043990000000002
281.2,0.006062
281.40000000000003,0.0051740000000002
281.6,0.001754
281.8,-0.0001219999999997
282.00000000000006,-0.0017469999999999
282.2,-0.0056579999999999
282.40000000000003,-0.007244
282.6,-0.0073229999999999
282.8,-0.0068479999999997
283.00000000000006,-0.0073829999999999
283.2,-0.0058959999999999
283.40000000000003,-0.0053919999999996
283.6,-0.0042949999999999
283.8,-0.003101
284.00000000000006,-0.0019519999999997
284.2,-0.0037329999999999
284.40000000000003,-0.0055579999999997
284.6,-0.0076019999999998
284.8,-0.0095609999999997
285.00000000000006,-0.0114279999999999
285.2,-0.0100319999999998
285.40000000000003,-0.0079979999999997
285.6,-0.0074089999999999
285.8,-0.007908
286.00000000000006,-0.0084169999999996
286.2,-0.0090469999999998
286.40000000000003,-0.0100309999999996
286.6,-0.0079989999999998
286.8,-0.0058449999999998
287.00000000000006,-0.0031069999999999
287.2,-0.0014659999999997
287.40000000000003,0.001614
287.6,0.0020670000000002
287.8,0.0026110000000003
288.00000000000006,0.00211
288.2,0.0024090000000001
288.40000000000003,0.001703
288.6,0.0006590000000001
288.8,-0.0011109999999998
289.00000000000006,-0.0027569999999998
289.2,-0.0023659999999998
289.40000000000003,-0.0024039999999998
289.6,-0.0029269999999996
289.8,-0.0040839999999997
290.00000000000006,-0.0026829999999997
290.2,-0.0044389999999996
290.40000000000003,-0.0051729999999996
290.6,-0.006056
290.8,-0.0048669999999999
291.00000000000006,-0.0057929999999997
291.2,-0.0070549999999998
291.40000000000003,-0.0083149999999996
291.6,-0.0084579999999996
291.8,-0.0075069999999999
292.00000000000006,-0.005614
292.2,-0.0022429999999999
292.40000000000003,-0.0010839999999996
292.6,-0.0008809999999996
292.8,-0.003387
293.00000000000006,-0.0059079999999998
293.2,-0.0092889999999998
293.40000000000003,-0.0108299999999998
293.6,-0.0100349999999997
293.8,-0.0067719999999997
294.00000000000006,-0.0037019999999996
294.2,-0.0012209999999996
294.40000000000003,9.800000000037556e-05
294.6,0.00096
294.8,0.000868
295.00000000000006,0.0003999999999999
295.2,-0.000731
295.40000000000003,-0.0012829999999999
295.6,-0.0012839999999996
295.8,-0.000445
296.00000000000006,-0.0015159999999996
296.2,-0.0015829999999996
296.40000000000003,-0.0017439999999999
296.6,-0.0017739999999997
296.8,-0.002291
297.00000000000006,-8.499999999989072e-05
297.2,0.0023870000000001
297.40000000000003,0.0049480000000001
297.6,0.005865
297.8,0.0030780000000003
298.00000000000006,0.0001740000000003
298.2,-0.0022729999999997
298.40000000000003,-0.0038809999999998
298.6,-0.0046179999999997
298.8,-0.0030919999999996
299.00000000000006,-0.0024319999999997
299.2,-0.0036019999999998
299.40000000000003,-0.0053649999999998
299.6,-0.007619
299.8,-0.0091700000000001
299.99999999999994,-0.0133130000000001
300.2,-0.0164870000000001
300.3999999999999,-0.0214530000000001
300.6,-0.0230230000000002
300.8,-0.0243079999999999
300.99999999999994,-0.023241
301.2,-0.0220030000000002
301.3999999999999,-0.019476
301.6,-0.0192990000000001
301.8,-0.0180480000000002
301.99999999999994,-0.0174820000000002
302.2,-0.0178799999999998
302.3999999999999,-0.019908
302.6,-0.0235259999999999
302.8,-0.0260000000000002
302.99999999999994,-0.0278580000000001
303.2,-0.028083
303.3999999999999,-0.02726
303.6,-0.025668
303.8,-0.0262169999999999
303.99999999999994,-0.028064
304.2,-0.0300060000000002
304.3999999999999,-0.0312999999999998
304.6,-0.030729
304.8,-0.030297
304.99999999999994,-0.0280110000000002
305.2,-0.027025
305.3999999999999,-0.0268730000000001
305.6,-0.0284300000000001
305.8,-0.0280750000000002
305.99999999999994,-0.028172
306.2,-0.0294470000000002
306.3999999999999,-0.0310700000000001
306.6,-0.0305370000000002
306.8,-0.028664
306.99999999999994,-0.0269590000000001
307.2,-0.0237510000000003
307.3999999999999,-0.02258
307.6,-0.022926
307.8,-0.0246590000000002
307.99999999999994,-0.025732
308.2,-0.0268839999999999
308.3999999999999,-0.025697
308.6,-0.0239259999999998
308.8,-0.022593
308.99999999999994,-0.0224329999999999
309.2,-0.022507
309.3999999999999,-0.0241700000000002
309.6,-0.0257460000000002
309.8,-0.0276740000000002
309.99999999999994,-0.0305080000000002
310.2,-0.0326780000000002
310.3999999999999,-0.0329520000000003
310.6,-0.0324430000000002
310.8,-0.0328569999999999
310.99999999999994,-0.0316830000000001
311.2,-0.030383
311.3999999999999,-0.0268390000000002
311.6,-0.0257100000000001
311.8,-0.0251330000000002
311.99999999999994,-0.0244059999999999
312.2,-0.0236909999999999
312.3999999999999,-0.0253399999999999
312.6,-0.0269530000000002
312.8,-0.0271980000000002
312.99999999999994,-0.027635
313.2,-0.0285760000000001
313.3999999999999,-0.0297659999999999
313.6,-0.0293309999999999
313.8,-0.0274800000000001
313.99999999999994,-0.026469
314.2,-0.02638
314.3999999999999,-0.0260850000000001
314.6,-0.026599
314.8,-0.0285090000000001
314.99999999999994,-0.0294639999999999
315.2,-0.0305919999999999
315.3999999999999,-0.0320179999999998
315.6,-0.0345940000000002
315.8,-0.035088
315.99999999999994,-0.03532
316.2,-0.0340169999999999
316.3999999999999,-0.0325420000000002
316.6,-0.0293100000000001
316.8,-0.0295040000000001
316.99999999999994,-0.028486
317.2,-0.0283310000000001
317.3999999999999,-0.027349
317.6,-0.028804
317.8,-0.029827
317.99999999999994,-0.0318140000000002
318.2,-0.0329570000000001
318.3999999999999,-0.0344860000000002
318.6,-0.0345979999999999
318.8,-0.0343040000000001
318.99999999999994,-0.035517
319.2,-0.0374690000000002
319.3999999999999,-0.0380869999999999
319.6,-0.0378769999999999
319.8,-0.037004
319.99999999999994,-0.0351910000000001
320.2,-0.0320210000000003
320.3999999999999,-0.031517
320.6,-0.0318050000000003
320.8,-0.032375
320.99999999999994,-0.0312710000000002
321.2,-0.0311820000000002
321.3999999999999,-0.0301140000000001
321.6,-0.0296980000000002
321.8,-0.0267170000000001
321.99999999999994,-0.0241579999999999
322.2,-0.023781
322.3999999999999,-0.0243380000000001
322.6,-0.0256540000000002
322.8,-0.028515
322.99999999999994,-0.0317600000000002
323.2,-0.0329510000000001
323.3999999999999,-0.0335290000000001
323.6,-0.033179
323.8,-0.0315229999999999
323.99999999999994,-0.0300419999999999
324.2,-0.027959
324.3999999999999,-0.026958
324.6,-0.0255800000000001
324.8,-0.0262389999999999
324.99999999999994,-0.0275630000000002
325.2,-0.030869
325.3999999999999,-0.0322910000000002
325.6,-0.0328120000000002
325.8,-0.0329200000000002
325.99999999999994,-0.0349349999999999
326.2,-0.0349509999999999
326.3999999999999,-0.03715
326.6,-0.036423
326.8,-0.0363359999999999
326.99999999999994,-0.0341740000000001
327.2,-0.032553
327.3999999999999,-0.0281609999999998
327.6,-0.026348
327.8,-0.0238040000000001
327.99999999999994,-0.0211749999999999
328.2,-0.0209330000000003
328.3999999999999,-0.0228429999999999
328.6,-0.024712
328.8,-0.0269949999999998
328.99999999999994,-0.0289649999999999
329.2,-0.0284490000000001
329.3999999999999,-0.0274
329.6,-0.0276330000000002
329.8,-0.029309
329.99999999999994,-0.0300830000000003
330.2,-0.0312990000000001
330.3999999999999,-0.031482
330.6,-0.0304610000000002
330.8,-0.0284020000000002
330.99999999999994,-0.0277950000000002
331.2,-0.0263170000000001
331.3999999999999,-0.0263599999999999
331.6,-0.0288289999999999
331.8,-0.0307759999999999
331.99999999999994,-0.0315560000000001
332.2,-0.0299970000000002
332.3999999999999,-0.0270839999999998
332.6,-0.0227310000000002
332.8,-0.018637
332.99999999999994,-0.0185539999999999
333.2,-0.0209740000000002
333.3999999999999,-0.0253000000000001
333.6,-0.0291529999999999
333.8,-0.0315790000000002
333.99999999999994,-0.0302839999999999
334.2,-0.0290060000000003
334.3999999999999,-0.028029
334.6,-0.027714
334.8,-0.0277289999999998
334.99999999999994,-0.0275470000000002
335.2,-0.0285239999999999
335.3999999999999,-0.0295710000000002
335.6,-0.0295179999999999
335.8,-0.0313630000000002
335.99999999999994,-0.034405
336.2,-0.0346040000000003
336.3999999999999,-0.0331800000000002
336.6,-0.0330479999999999
336.8,-0.0329489999999998
336.99999999999994,-0.0329360000000003
337.2,-0.0349330000000001
337.3999999999999,-0.0358620000000002
337.6,-0.0353410000000002
337.8,-0.03403
337.99999999999994,-0.0309409999999998
338.2,-0.0281310000000001
338.3999999999999,-0.0265050000000002
338.6,-0.0257520000000002
338.8,-0.0277510000000003
338.99999999999994,-0.0313020000000001
339.2,-0.0330440000000002
339.3999999999999,-0.0348540000000001
339.6,-0.0360339999999999
339.8,-0.0356330000000002
339.99999999999994,-0.0341599999999999
340.2,-0.0340139999999999
340.3999999999999,-0.0337710000000002
340.6,-0.0348939999999999
340.8,-0.0349020000000002
340.99999999999994,-0.0346630000000001
341.2,-0.0346649999999999
341.3999999999999,-0.0348990000000002
341.6,-0.0348209999999999
341.8,-0.0377339999999999
341.99999999999994,-0.0409350000000001
342.2,-0.0432140000000003
342.3999999999999,-0.0434520000000002
342.6,-0.0419550000000001
342.8,-0.0375049999999999
342.99999999999994,-0.0349300000000001
343.2,-0.032591
343.3999999999999,-0.0305270000000001
343.6,-0.0303300000000001
343.8,-0.0311180000000002
343.99999999999994,-0.0312740000000002
344.2,-0.0317910000000001
344.3999999999999,-0.0317769999999999
344.6,-0.030281
344.8,-0.0279869999999999
344.99999999999994,-0.027749
345.2,-0.027819
345.3999999999999,-0.028661
345.6,-0.0284930000000001
345.8,-0.0290650000000001
345.99999999999994,-0.027749
346.2,-0.0257080000000002
346.3999999999999,-0.0260090000000001
346.6,-0.0280170000000001
346.8,-0.0307210000000002
346.99999999999994,-0.0325570000000001
347.2,-0.034898
347.3999999999999,-0.0351530000000002
347.6,-0.0359899999999999
347.8,-0.0349980000000003
347.99999999999994,-0.0349490000000001
348.2,-0.0338989999999999
348.3999999999999,-0.0339179999999998
348.6,-0.0326370000000002
348.8,-0.0338020000000001
348.99999999999994,-0.0331100000000001
349.2,-0.0326310000000003
349.3999999999999,-0.0318279999999999
349.6,-0.0314650000000003
349.8,-0.0299230000000001
349.99999999999994,-0.0303560000000002
350.2,-0.0303690000000003
350.3999999999999,-0.0308410000000001
350.6,-0.032118
350.8,-0.031803
350.99999999999994,-0.0312689999999999
351.2,-0.0308839999999999
351.3999999999999,-0.031641
351.6,-0.0300860000000002
351.8,-0.0282560000000002
351.99999999999994,-0.0268139999999998
352.2,-0.0261819999999999
352.3999999999999,-0.0235229999999999
352.6,-0.0230570000000001
352.8,-0.0231129999999999
352.99999999999994,-0.0241220000000002
353.2,-0.0263710000000001
353.3999999999999,-0.0295810000000003
353.6,-0.0326550000000001
353.8,-0.0341370000000003
353.99999999999994,-0.0347569999999999
354.2,-0.0341249999999999
354.3999999999999,-0.0337800000000001
354.6,-0.0335480000000001
354.8,-0.0330699999999999
354.99999999999994,-0.0312930000000002
355.2,-0.0310000000000001
355.3999999999999,-0.0304450000000002
355.6,-0.0283730000000002
355.8,-0.0299430000000002
355.99999999999994,-0.0315060000000002
356.2,-0.0311449999999999
356.3999999999999,-0.0315389999999999
356.6,-0.0337070000000001
356.8,-0.0333770000000002
356.99999999999994,-0.033671
357.2,-0.0331990000000002
357.3999999999999,-0.0304070000000002
357.6,-0.027088
357.8,-0.0251619999999999
357.99999999999994,-0.023136
358.2,-0.023292
358.3999999999999,-0.0248180000000002
358.6,-0.027346
358.8,-0.0281990000000003
358.99999999999994,-0.0290110000000001
359.2,-0.027838
359.3999999999999,-0.0280810000000002
359.6,-0.0265370000000002
359.8,-0.025554
359.99999999999994,-0.0256500000000001
360.2,-0.028302
360.3999999999999,-0.0306160000000002
360.6,-0.0328729999999999
360.8,-0.0358930000000001
361.0,-0.0378030000000002
361.2,-0.0382329999999999
361.3999999999999,-0.0357560000000001
361.6,-0.0333580000000002
361.8,-0.032146
362.0,-0.0318770000000001
362.2,-0.031311
362.3999999999999,-0.0337
362.6,-0.0357639999999999
362.8,-0.03688
363.0,-0.0377360000000002
363.2,-0.0382890000000002
363.3999999999999,-0.0378700000000002
363.6,-0.0377430000000003
363.8,-0.0376829999999999
364.0,-0.0359510000000002
364.2,-0.0353620000000001
364.3999999999999,-0.0338289999999998
364.6,-0.0340329999999999
364.8,-0.0329550000000002
365.0,-0.0324810000000002
365.2,-0.030783
365.3999999999999,-0.0304630000000001
365.6,-0.0305189999999999
365.8,-0.0331969999999999
366.0,-0.0339230000000001
366.2,-0.0339430000000002
366.3999999999999,-0.035479
366.6,-0.037706
366.8,-0.0361340000000001
367.0,-0.0358010000000001
367.2,-0.0372370000000001
367.3999999999999,-0.036496
367.6,-0.0337149999999999
367.8,-0.0324970000000002
368.0,-0.0334600000000002
368.2,-0.0336220000000002
368.3999999999999,-0.0339330000000002
368.6,-0.0329670000000001
368.8,-0.0319259999999999
369.0,-0.029401
369.2,-0.0268260000000002
369.3999999999999,-0.0259650000000002
369.6,-0.0275000000000003
369.8,-0.0287299999999999
370.0,-0.0303900000000001
370.2,-0.0331209999999999
370.3999999999999,-0.0363610000000003
370.6,-0.0369200000000002
370.8,-0.0385490000000001
371.0,-0.0402110000000002
371.2,-0.0416060000000002
371.3999999999999,-0.0395419999999999
371.6,-0.0395419999999999
371.8,-0.0402300000000002
372.0,-0.0404390000000001
372.2,-0.0386999999999999
372.3999999999999,-0.036531
372.6,-0.0352209999999999
372.8,-0.0335830000000001
373.0,-0.0311780000000001
373.2,-0.029967
373.3999999999999,-0.0317129999999998
373.6,-0.032566
373.8,-0.0329640000000002
374.0,-0.0341689999999998
374.2,-0.036057
374.3999999999999,-0.0354589999999999
374.6,-0.0343469999999999
374.8,-0.0333040000000002
375.0,-0.0323480000000002
375.2,-0.0313950000000002
375.3999999999999,-0.0313660000000002
375.6,-0.0299460000000002
375.8,-0.0293049999999999
376.0,-0.0306890000000001
376.2,-0.0313229999999999
376.3999999999999,-0.0298190000000002
376.6,-0.0307979999999998
376.8,-0.0313229999999999
377.0,-0.0299710000000001
377.2,-0.0277130000000003
377.3999999999999,-0.0267599999999998
377.6,-0.0268640000000002
377.8,-0.0261499999999998
378.0,-0.0261050000000002
378.2,-0.0278780000000002
378.3999999999999,-0.0321630000000001
378.6,-0.0338370000000001
378.8,-0.0344890000000002
379.0,-0.0350860000000001
379.2,-0.0358430000000002
379.3999999999999,-0.0353799999999999
379.6,-0.0351490000000001
379.8,-0.0355210000000001
380.0,-0.0348329999999998
380.2,-0.0318100000000001
380.3999999999999,-0.0279440000000001
380.6,-0.023857
380.8,-0.0206509999999999
381.0,-0.0192930000000002
381.2,-0.0211140000000003
381.3999999999999,-0.024267
381.6,-0.0258090000000001
381.8,-0.0274130000000001
382.0,-0.0284740000000001
382.2,-0.0296799999999999
382.3999999999999,-0.028334
382.6,-0.0280010000000001
382.8,-0.0256880000000001
383.0,-0.0231690000000002
383.2,-0.0213619999999998
383.3999999999999,-0.0227630000000003
383.6,-0.0259370000000003
383.8,-0.0308999999999999
384.0,-0.0346350000000001
384.2,-0.0367230000000002
384.3999999999999,-0.0364740000000001
384.6,-0.0349780000000001
384.8,-0.0338760000000002
385.0,-0.0353600000000002
385.2,-0.0349859999999999
385.3999999999999,-0.033989
385.6,-0.0331369999999999
385.8,-0.0315259999999999
386.0,-0.0277560000000001
386.2,-0.026259
386.3999999999999,-0.0270800000000002
386.6,-0.0291559999999999
386.8,-0.0302169999999999
387.0,-0.0325130000000002
387.2,-0.0343819999999999
387.3999999999999,-0.0358369999999999
387.6,-0.0365169999999999
387.8,-0.0375490000000002
388.0,-0.0364279999999999
388.2,-0.035854
388.3999999999999,-0.0358810000000002
388.6,-0.0358659999999999
388.8,-0.0363990000000002
389.0,-0.0376410000000002
389.2,-0.0369360000000003
389.3999999999999,-0.033881
389.6,-0.0325070000000002
389.8,-0.032537
390.0,-0.0314160000000001
390.2,-0.0306440000000001
390.3999999999999,-0.0320279999999999
390.6,-0.0324690000000003
390.8,-0.032502
391.0,-0.0346999999999999
391.2,-0.0378479999999998
391.3999999999999,-0.0388749999999999
391.6,-0.0380229999999999
391.8,-0.0368020000000002
392.0,-0.035714
392.2,-0.0347919999999999
392.3999999999999,-0.0346390000000003
392.6,-0.0347970000000001
392.8,-0.0342190000000002
393.0,-0.0335550000000002
393.2,-0.0350269999999999
393.3999999999999,-0.0362949999999999
393.6,-0.0379080000000002
393.8,-0.0387680000000001
394.0,-0.0393910000000001
394.2,-0.0382869999999999
394.3999999999999,-0.0373260000000001
394.6,-0.0357380000000002
394.8,-0.0348860000000001
395.0,-0.0321830000000002
395.2,-0.030075
395.3999999999999,-0.0294030000000002
395.6,-0.0301680000000001
395.8,-0.0308670000000002
396.0,-0.0343189999999999
396.2,-0.034567
396.3999999999999,-0.0349530000000002
396.6,-0.0349120000000002
396.8,-0.0354810000000003
397.0,-0.0346800000000002
397.2,-0.035641
397.3999999999999,-0.0354049999999999
397.6,-0.0354140000000002
397.8,-0.0362
398.0,-0.0368940000000002
398.2,-0.0350290000000002
398.3999999999999,-0.0338280000000001
398.6,-0.0347940000000002
398.8,-0.034596
399.0,-0.0351760000000003
399.2,-0.0373990000000001
399.3999999999999,-0.0396930000000002
399.6,-0.0372750000000001
399.8,-0.0353959999999999
400.0,-0.0340090000000001
400.2,-0.0335969999999998
400.3999999999999,-0.0324539999999999
400.6,-0.034564
400.8,-0.0362780000000002
401.0,-0.036766
401.2,-0.0377200000000002
401.3999999999999,-0.038243
401.6,-0.0374129999999999
401.8,-0.0363850000000001
402.0,-0.0377399999999998
402.2,-0.0386200000000003
402.3999999999999,-0.0389370000000002
402.6,-0.039673
402.8,-0.0405929999999998
403.0,-0.0387759999999999
403.2,-0.036273
403.3999999999999,-0.035012
403.6,-0.033366
403.8,-0.0327770000000002
404.0,-0.032817
404.2,-0.0343659999999999
404.3999999999999,-0.0350510000000001
404.6,-0.0369070000000002
404.8,-0.0369290000000002
405.0,-0.0358010000000001
405.2,-0.0344830000000002
405.3999999999999,-0.0357410000000002
405.6,-0.0349729999999999
405.8,-0.0352109999999998
406.0,-0.0351310000000002
406.2,-0.035358
406.3999999999999,-0.0333429999999999
406.6,-0.0340790000000001
406.8,-0.0349349999999999
407.0,-0.0364780000000002
407.2,-0.0349470000000002
407.3999999999999,-0.0327440000000001
407.6,-0.0295879999999999
407.8,-0.0272390000000002
408.0,-0.0266320000000002
408.2,-0.0301379999999999
408.3999999999999,-0.0350570000000001
408.6,-0.0387400000000002
408.8,-0.0404680000000001
409.0,-0.0413330000000002
409.2,-0.0393150000000002
409.3999999999999,-0.037528
409.6,-0.0363320000000002
409.8,-0.0368340000000002
410.0,-0.0356860000000001
410.2,-0.0365470000000001
410.3999999999999,-0.0358930000000001
410.6,-0.035603
410.8,-0.0348939999999999
411.0,-0.0356650000000002
411.2,-0.0347249999999998
411.3999999999999,-0.0347159999999999
411.6,-0.0335779999999998
411.8,-0.0311650000000001
412.0,-0.029312
412.2,-0.030898
412.3999999999999,-0.0332729999999998
412.6,-0.0368539999999999
412.8,-0.0398710000000002
413.0,-0.0418310000000001
413.2,-0.03967
413.3999999999999,-0.0357989999999999
413.6,-0.0321440000000001
413.8,-0.0308580000000002
414.0,-0.0312140000000002
414.2,-0.0340290000000003
414.3999999999999,-0.0391699999999999
414.6,-0.0429129999999999
414.8,-0.0455019999999999
415.0,-0.0455680000000002
415.2,-0.0452840000000001
415.3999999999999,-0.043431
415.6,-0.0414240000000001
415.8,-0.0380190000000002
416.0,-0.0361519999999999
416.2,-0.034351
416.3999999999999,-0.0325600000000001
416.6,-0.033366
416.8,-0.0336310000000001
417.0,-0.0340410000000002
417.2,-0.0327990000000002
417.3999999999999,-0.0327090000000001
417.6,-0.029894
417.8,-0.0314589999999999
418.0,-0.0337390000000001
418.2,-0.0352559999999999
418.3999999999999,-0.0353189999999998
418.6,-0.0358960000000001
418.8,-0.035384
419.0,-0.0347910000000002
419.2,-0.0355240000000001
419.3999999999999,-0.0375810000000003
419.6,-0.0398110000000002
419.8,-0.0406110000000001
420.0,-0.039587
420.2,-0.0402180000000003
420.3999999999999,-0.0407250000000001
420.6,-0.042777
420.8,-0.0434290000000001
421.0,-0.044283
421.2,-0.0418160000000003
421.3999999999999,-0.0389280000000002
421.6,-0.0347140000000001
421.8,-0.0324550000000001
422.0,-0.0332760000000003
422.2,-0.0357289999999999
422.3999999999999,-0.0393319999999999
422.6,-0.0418850000000001
422.8,-0.0432520000000002
423.0,-0.0420440000000001
423.2,-0.0409329999999998
423.3999999999999,-0.038691
423.6,-0.036299
423.8,-0.033827
424.0,-0.0323899999999999
424.2,-0.0314170000000002
424.3999999999999,-0.0294349999999998
424.6,-0.0280460000000002
424.8,-0.0285139999999999
425.0,-0.0272399999999999
425.2,-0.0250120000000002
425.3999999999999,-0.0224760000000001
425.6,-0.0227349999999999
425.8,-0.0220549999999999
426.0,-0.0221960000000001
426.2,-0.0246669999999999
426.3999999999999,-0.0305550000000001
426.6,-0.0367169999999998
426.8,-0.040912
427.0,-0.0445160000000002
427.2,-0.044391
427.3999999999999,-0.0418630000000002
427.6,-0.0362469999999999
427.8,-0.0341949999999999
428.0,-0.03424
428.2,-0.0353470000000002
428.3999999999999,-0.0365220000000001
428.6,-0.037849
428.8,-0.037563
429.0,-0.0351950000000003
429.2,-0.03485
429.3999999999999,-0.033814
429.6,-0.032804
429.8,-0.03356
430.0,-0.0340929999999999
430.2,-0.032413
430.3999999999999,-0.0324819999999999
430.6,-0.0340929999999999
430.8,-0.0359120000000001
431.0,-0.0380880000000001
431.2,-0.04054
431.3999999999999,-0.0409070000000002
431.6,-0.0401890000000002
431.8,-0.0384990000000002
432.0,-0.03804
432.2,-0.037573
432.3999999999999,-0.040054
432.6,-0.0412509999999999
432.8,-0.0421420000000001
433.0,-0.0414600000000002
433.2,-0.0392320000000001
433.3999999999999,-0.034926
433.6,-0.0325869999999999
433.8,-0.0324170000000001
434.0,-0.0320740000000001
434.2,-0.0340350000000002
434.3999999999999,-0.0364379999999999
434.6,-0.038208
434.8,-0.0373870000000002
435.0,-0.0383940000000002
435.2,-0.0392360000000002
435.3999999999999,-0.0396620000000003
435.6,-0.039371
435.8,-0.0392960000000002
436.0,-0.0373680000000002
436.2,-0.0354049999999999
436.3999999999999,-0.0341339999999998
436.6,-0.0352019999999999
436.8,-0.0369220000000001
437.0,-0.0389219999999999
437.2,-0.0406500000000003
437.3999999999999,-0.0407160000000001
437.6,-0.0371209999999999
437.8,-0.0335589999999998
438.0,-0.0325619999999999
438.2,-0.0309240000000001
438.3999999999999,-0.0290539999999999
438.6,-0.0307189999999999
438.8,-0.0334210000000001
439.0,-0.0341059999999999
439.2,-0.0339050000000002
439.3999999999999,-0.0361990000000003
439.6,-0.036162
439.8,-0.0335070000000001
440.0,-0.0318620000000002
440.2,-0.0338449999999999
440.3999999999999,-0.0356239999999998
440.6,-0.0373619999999998
440.8,-0.0396110000000002
441.0,-0.039082
441.2,-0.039714
441.3999999999999,-0.0401489999999999
441.6,-0.0412690000000002
441.8,-0.0396860000000001
442.0,-0.0391500000000002
442.2,-0.0372750000000001
442.3999999999999,-0.0357530000000001
442.6,-0.0348440000000001
442.8,-0.0362819999999999
443.0,-0.0389340000000002
443.2,-0.0409269999999999
443.3999999999999,-0.0405329999999999
443.6,-0.0393729999999998
443.8,-0.0391989999999999
444.0,-0.0398840000000002
444.2,-0.0398710000000002
444.3999999999999,-0.0403579999999998
444.6,-0.0407290000000002
444.8,-0.0389120000000002
445.0,-0.0357890000000002
445.2,-0.033093
445.3999999999999,-0.0328330000000001
445.6,-0.0331030000000001
445.8,-0.035212
446.0,-0.0365820000000001
446.2,-0.038227
446.3999999999999,-0.0382160000000002
446.6,-0.037611
446.8,-0.0371900000000002
447.0,-0.0380790000000001
447.2,-0.0367390000000003
447.3999999999999,-0.0376370000000001
447.6,-0.0386619999999999
447.8,-0.0390450000000002
448.0,-0.0376160000000003
448.2,-0.038367
448.3999999999999,-0.0364010000000001
448.6,-0.036051
448.8,-0.0370150000000002
449.0,-0.0371330000000003
449.2,-0.0363600000000001
449.3999999999999,-0.0358659999999999
449.6,-0.035994
449.8,-0.035517
450.0,-0.0365429999999999
450.2,-0.0370479999999999
450.3999999999999,-0.0379870000000002
450.6,-0.036194
450.8,-0.0349509999999999
451.0,-0.034326
451.2,-0.033973
451.3999999999999,-0.032731
451.6,-0.0340959999999999
451.8,-0.0361419999999998
452.0,-0.0368509999999999
452.2,-0.0371459999999999
452.3999999999999,-0.0383910000000002
452.6,-0.037347
452.8,-0.0344839999999999
453.0,-0.0331830000000001
453.2,-0.0331909999999999
453.3999999999999,-0.0319449999999998
453.6,-0.0324599999999999
453.8,-0.0336609999999999
454.0,-0.0354019999999999
454.2,-0.0359799999999999
454.3999999999999,-0.0347249999999998
454.6,-0.0321739999999999
454.8,-0.0326010000000001
455.0,-0.0332099999999999
455.2,-0.0344440000000001
455.3999999999999,-0.0361769999999999
455.6,-0.038237
455.8,-0.037071
456.0,-0.036022
456.2,-0.0352860000000001
456.3999999999999,-0.036972
456.6,-0.0375450000000001
456.8,-0.038513
457.0,-0.0385310000000003
457.2,-0.0386359999999998
457.3999999999999,-0.0395940000000001
457.6,-0.0399670000000003
457.8,-0.0385439999999999
458.0,-0.0371209999999999
458.2,-0.0375770000000001
458.3999999999999,-0.0374509999999999
458.6,-0.0388740000000003
458.8,-0.0400870000000002
459.0,-0.0407329999999999
459.2,-0.03919
459.3999999999999,-0.0365730000000001
459.6,-0.0335469999999999
459.8,-0.032766
460.0,-0.0320200000000001
460.2,-0.0318870000000002
460.3999999999999,-0.0325090000000001
460.6,-0.0345819999999998
460.8,-0.0334780000000001
461.0,-0.0339490000000002
461.2,-0.034977
461.3999999999999,-0.03661
461.6,-0.0360620000000002
461.8,-0.0368140000000001
462.0,-0.0369770000000002
462.2,-0.0365220000000001
462.3999999999999,-0.0360430000000002
462.6,-0.0359410000000002
462.8,-0.0374150000000002
463.0,-0.0380139999999999
463.2,-0.0369480000000002
463.3999999999999,-0.0357310000000001
463.6,-0.0348209999999999
463.8,-0.033662
464.0,-0.033004
464.2,-0.0329610000000002
464.3999999999999,-0.032515
464.6,-0.031997
464.8,-0.0314170000000002
465.0,-0.032407
465.2,-0.033922
465.3999999999999,-0.0344850000000001
465.6,-0.0344760000000001
465.8,-0.034189
466.0,-0.033144
466.2,-0.0323519999999999
466.3999999999999,-0.0319039999999999
466.6,-0.0330159999999999
466.8,-0.035352
467.0,-0.0388130000000002
467.2,-0.0409950000000001
467.3999999999999,-0.043104
467.6,-0.044855
467.8,-0.0441340000000001
468.0,-0.0401570000000002
468.2,-0.0348420000000002
468.3999999999999,-0.031393
468.6,-0.0292799999999999
468.8,-0.0289510000000001
469.0,-0.0288500000000002
469.2,-0.0310740000000002
469.3999999999999,-0.0322119999999999
469.6,-0.031733
469.8,-0.0295719999999999
470.0,-0.0291269999999999
470.2,-0.0308519999999998
470.3999999999999,-0.0318119999999999
470.6,-0.0338220000000002
470.8,-0.0364659999999998
471.0,-0.0388649999999999
471.2,-0.0388169999999998
471.3999999999999,-0.0370569999999998
471.6,-0.0331140000000003
471.8,-0.0301849999999999
472.0,-0.0276659999999999
472.2,-0.0267120000000002
472.3999999999999,-0.027536
472.6,-0.030653
472.8,-0.033258
473.0,-0.035501
473.2,-0.0355570000000002
473.3999999999999,-0.0354040000000002
473.6,-0.0346770000000002
473.8,-0.0344389999999998
474.0,-0.0338009999999999
474.2,-0.0335610000000001
474.3999999999999,-0.0331350000000001
474.6,-0.0333160000000001
474.8,-0.0334690000000001
475.0,-0.0335260000000001
475.2,-0.0333860000000001
475.3999999999999,-0.0349630000000003
475.6,-0.0359799999999999
475.8,-0.0373900000000002
476.0,-0.0389750000000002
476.2,-0.0411900000000002
476.3999999999999,-0.0408979999999998
476.6,-0.0383650000000002
476.8,-0.0338009999999999
477.0,-0.030062
477.2,-0.0282469999999999
477.3999999999999,-0.0280610000000001
477.6,-0.0292090000000002
477.8,-0.0302410000000001
478.0,-0.0305919999999999
478.2,-0.0302000000000002
478.3999999999999,-0.0298090000000001
478.6,-0.030021
478.8,-0.0314969999999998
479.0,-0.0330940000000001
479.2,-0.0347089999999998
479.3999999999999,-0.0382890000000002
479.6,-0.0412650000000001
479.8,-0.042739
480.0,-0.0438719999999999
480.2,-0.045932
480.3999999999999,-0.0456280000000002
480.6,-0.0430060000000001
480.8,-0.040553
481.0,-0.0384610000000003
481.2,-0.0358990000000001
481.3999999999999,-0.0338630000000002
481.6,-0.0354960000000001
481.8,-0.0385569999999999
482.0,-0.0412259999999999
482.2,-0.0427569999999999
482.3999999999999,-0.0444870000000001
482.6,-0.0440650000000002
482.8,-0.0417110000000002
483.0,-0.0402560000000002
483.2,-0.038418
483.3999999999999,-0.0357440000000002
483.6,-0.034437
483.8,-0.0370150000000002
484.0,-0.0382280000000001
484.2,-0.0394300000000003
484.3999999999999,-0.0411030000000001
484.6,-0.0416030000000002
484.8,-0.0397380000000002
485.0,-0.0391259999999999
485.2,-0.0372150000000002
485.3999999999999,-0.0371209999999999
485.6,-0.0378000000000002
485.8,-0.038103
486.0,-0.0387140000000001
486.2,-0.0405250000000001
486.3999999999999,-0.0396970000000003
486.6,-0.0392429999999999
486.8,-0.0396580000000001
487.0,-0.0389829999999999
487.2,-0.0371019999999999
487.3999999999999,-0.0358970000000002
487.6,-0.033468
487.8,-0.0334159999999998
488.0,-0.034504
488.2,-0.0366970000000002
488.3999999999999,-0.0369969999999999
488.6,-0.0368630000000003
488.8,-0.0327860000000002
489.0,-0.0292380000000003
489.2,-0.02536
489.3999999999999,-0.0251170000000002
489.6,-0.026809
489.8,-0.0308779999999999
490.0,-0.0341979999999999
490.2,-0.037185
490.3999999999999,-0.0381020000000003
490.6,-0.0390580000000002
490.8,-0.0388239999999999
491.0,-0.0374099999999999
491.2,-0.0360230000000001
491.3999999999999,-0.0337119999999999
491.6,-0.0324569999999999
491.8,-0.0316309999999999
492.0,-0.0315370000000001
492.2,-0.0330790000000003
492.3999999999999,-0.036245
492.6,-0.0377529999999999
492.8,-0.038227
493.0,-0.0373110000000003
493.2,-0.035034
493.3999999999999,-0.0332270000000001
493.6,-0.0323739999999999
493.8,-0.0339249999999999
494.0,-0.0352879999999999
494.2,-0.0373360000000002
494.3999999999999,-0.0381499999999999
494.6,-0.0375
494.8,-0.035657
495.0,-0.0362659999999999
495.2,-0.0363260000000003
495.3999999999999,-0.0368620000000001
495.6,-0.038113
495.8,-0.0397540000000002
496.0,-0.0388619999999999
496.2,-0.0380929999999999
496.3999999999999,-0.0373230000000002
496.6,-0.0364430000000002
496.8,-0.0349620000000001
497.0,-0.0352740000000002
497.2,-0.0350399999999999
497.3999999999999,-0.0341659999999999
497.6,-0.033258
497.8,-0.0330180000000002
498.0,-0.03234
498.2,-0.033976
498.3999999999999,-0.0387539999999999
498.6,-0.0425020000000002
498.8,-0.042637
499.0,-0.0424440000000001
499.2,-0.0416190000000002
499.3999999999999,-0.037932
499.6,-0.0360339999999999
499.8,-0.036826
500.0,-0.0385390000000001
500.2,-0.0397000000000002
500.3999999999999,-0.0407429999999999
500.6,-0.0400849999999999
500.8,-0.038529
501.0,-0.036165
501.2,-0.0337339999999999
501.3999999999999,-0.0312390000000002
501.6,-0.0311530000000002
501.8,-0.0319259999999999
502.0,-0.034688
502.2,-0.0365269999999999
502.3999999999999,-0.0401600000000001
502.6,-0.0407329999999999
502.8,-0.0414940000000001
503.0,-0.0396309999999999
503.2,-0.039914
503.3999999999999,-0.0397190000000002
503.6,-0.0387240000000002
503.8,-0.0374289999999999
504.0,-0.0378160000000002
504.2,-0.036429
504.3999999999999,-0.0348329999999998
504.6,-0.035695
504.8,-0.0370080000000001
505.0,-0.036356
505.2,-0.0359739999999999
505.3999999999999,-0.036048
505.6,-0.0362780000000002
505.8,-0.035816
506.0,-0.0377270000000002
506.2,-0.039098
506.3999999999999,-0.0385400000000002
506.6,-0.0381849999999999
506.8,-0.0373110000000003
507.0,-0.0349340000000002
507.2,-0.0329190000000001
507.3999999999999,-0.0335040000000002
507.6,-0.0353509999999999
507.8,-0.0377900000000002
508.0,-0.038005
508.2,-0.0366500000000002
508.3999999999999,-0.0342150000000001
508.6,-0.0312840000000003
508.8,-0.0297480000000001
509.0,-0.0307729999999999
509.2,-0.034383
509.3999999999999,-0.0363640000000002
509.6,-0.0380860000000002
509.8,-0.037757
510.0,-0.0366910000000002
510.2,-0.0344320000000002
510.3999999999999,-0.0339610000000001
510.6,-0.032
510.80000000000007,-0.0312749999999999
510.9999999999999,-0.030056
511.19999999999993,-0.0308079999999999
511.4,-0.0307020000000002
511.6,-0.0317630000000002
511.80000000000007,-0.0333990000000001
511.9999999999999,-0.035689
512.1999999999999,-0.0376769999999999
512.4,-0.039339
512.6,-0.040289
512.8000000000001,-0.041544
512.9999999999999,-0.042926
513.1999999999999,-0.0416259999999999
513.4,-0.0385430000000002
513.6,-0.0368210000000002
513.8000000000001,-0.0349780000000001
513.9999999999999,-0.0328090000000003
514.1999999999999,-0.0322960000000001
514.4,-0.0321950000000001
514.6,-0.0316800000000001
514.8000000000001,-0.0327809999999999
514.9999999999999,-0.0348350000000001
515.1999999999999,-0.0360439999999999
515.4,-0.0375499999999999
515.6,-0.0397120000000001
515.8000000000001,-0.0393189999999998
515.9999999999999,-0.0383960000000001
516.1999999999999,-0.037792
516.4,-0.037903
516.6,-0.0363990000000002
516.8000000000001,-0.0353150000000002
516.9999999999999,-0.0335670000000001
517.1999999999999,-0.0331719999999999
517.4,-0.03458
517.6,-0.0381249999999999
517.8000000000001,-0.0392939999999999
517.9999999999999,-0.040737
518.1999999999999,-0.0416920000000002
518.4,-0.0423849999999998
518.6,-0.040299
518.8000000000001,-0.0388169999999998
518.9999999999999,-0.0384389999999998
519.1999999999999,-0.0372720000000001
519.4,-0.0355929999999999
519.6,-0.0346079999999999
519.8000000000001,-0.034605
519.9999999999999,-0.0332250000000002
520.1999999999999,-0.030958
520.4,-0.0291589999999999
520.6,-0.0302839999999999
520.8000000000001,-0.032397
520.9999999999999,-0.0371010000000002
521.1999999999999,-0.0428109999999999
521.4,-0.047304
521.6,-0.0484279999999999
521.8000000000001,-0.0483480000000002
521.9999999999999,-0.0456790000000002
522.1999999999999,-0.0442050000000002
522.4,-0.0425900000000001
522.6,-0.0414449999999999
522.8000000000001,-0.0400560000000003
522.9999999999999,-0.0403570000000002
523.1999999999999,-0.0406200000000001
523.4,-0.0405429999999999
523.6,-0.0404550000000001
523.8000000000001,-0.0402949999999999
523.9999999999999,-0.0399549999999999
524.1999999999999,-0.0370319999999999
524.4,-0.0349780000000001
524.6,-0.0308920000000001
524.8000000000001,-0.0281670000000002
524.9999999999999,-0.0257870000000002
525.1999999999999,-0.0259070000000001
525.4,-0.0273720000000001
525.6,-0.032515
525.8000000000001,-0.036791
525.9999999999999,-0.0409510000000001
526.1999999999999,-0.0449079999999999
526.4,-0.0459849999999999
526.6,-0.0440940000000003
526.8000000000001,-0.0435099999999999
526.9999999999999,-0.0428730000000001
527.1999999999999,-0.0420180000000001
527.4,-0.0402040000000001
527.6,-0.038386
527.8000000000001,-0.0359229999999999
527.9999999999999,-0.033668
528.1999999999999,-0.0321899999999999
528.4,-0.0329570000000001
528.6,-0.034075
528.8000000000001,-0.0356070000000001
528.9999999999999,-0.0362849999999999
529.1999999999999,-0.0360490000000002
529.4,-0.0354939999999999
529.6,-0.03505
529.8000000000001,-0.034545
529.9999999999999,-0.034583
530.1999999999999,-0.0337339999999999
530.4,-0.0338720000000001
530.6,-0.035044
530.8000000000001,-0.0377070000000001
530.9999999999999,-0.0403000000000002
531.1999999999999,-0.0436749999999999
531.4,-0.0452500000000002
531.6,-0.0472800000000002
531.8000000000001,-0.046567
531.9999999999999,-0.0449209999999999
532.1999999999999,-0.0414600000000002
532.4,-0.0403030000000002
532.6,-0.0390580000000002
532.8000000000001,-0.0382929999999999
532.9999999999999,-0.0371520000000002
533.1999999999999,-0.0386890000000001
533.4,-0.0399130000000003
533.6,-0.0405429999999999
533.8000000000001,-0.040823
533.9999999999999,-0.0420290000000003
534.1999999999999,-0.041865
534.4,-0.0416240000000001
534.6,-0.0423590000000002
534.8000000000001,-0.0451380000000001
534.9999999999999,-0.0461119999999999
535.1999999999999,-0.0456780000000001
535.4,-0.0422220000000002
535.6,-0.039743
535.8000000000001,-0.0373300000000003
535.9999999999999,-0.0363610000000003
536.1999999999999,-0.0348999999999999
536.4,-0.035895
536.6,-0.0358119999999999
536.8000000000001,-0.0352700000000001
536.9999999999999,-0.034199
537.1999999999999,-0.0361660000000001
537.4,-0.038621
537.6,-0.040839
537.8000000000001,-0.0439020000000001
537.9999999999999,-0.0457510000000001
538.1999999999999,-0.0452289999999999
538.4,-0.0429500000000002
538.6,-0.040639
538.8000000000001,-0.038113
538.9999999999999,-0.0377909999999999
539.1999999999999,-0.03804
539.4,-0.0403570000000002
539.6,-0.0427279999999998
539.8000000000001,-0.0433799999999999
539.9999999999999,-0.0435980000000002
540.1999999999999,-0.0437769999999999
540.4,-0.0419110000000002
540.6,-0.039476
540.8000000000001,-0.0368330000000001
540.9999999999999,-0.034332
541.1999999999999,-0.0317099999999999
541.4,-0.0299200000000001
541.6,-0.0298259999999999
541.8000000000001,-0.0301590000000002
541.9999999999999,-0.0310610000000002
542.1999999999999,-0.0321039999999999
542.4,-0.034326
542.6,-0.0365160000000002
542.8000000000001,-0.0389810000000001
542.9999999999999,-0.040362
543.1999999999999,-0.0428809999999999
543.4,-0.0443199999999999
543.6,-0.042631
543.8000000000001,-0.040518
543.9999999999999,-0.0396550000000002
544.1999999999999,-0.037417
544.4,-0.0350200000000002
544.6,-0.03363
544.8000000000001,-0.0318930000000001
544.9999999999999,-0.0296180000000001
545.1999999999999,-0.0272200000000002
545.4,-0.026761
545.6,-0.0272740000000002
545.8000000000001,-0.0275739999999999
545.9999999999999,-0.0293550000000002
546.1999999999999,-0.0325999999999999
546.4,-0.0343569999999999
546.6,-0.0349470000000002
546.8000000000001,-0.037306
546.9999999999999,-0.0386899999999998
547.1999999999999,-0.0405619999999999
547.4,-0.0435600000000002
547.6,-0.045344
547.8000000000001,-0.0454400000000001
547.9999999999999,-0.0439130000000003
548.1999999999999,-0.040172
548.4,-0.0360270000000002
548.6,-0.0336890000000003
548.8000000000001,-0.0320629999999999
548.9999999999999,-0.0310209999999999
549.1999999999999,-0.0318810000000002
549.4,-0.0311440000000002
549.6,-0.031492
549.8000000000001,-0.0315540000000003
549.9999999999999,-0.0340310000000001
550.1999999999999,-0.0371030000000001
550.4,-0.0404020000000002
550.6,-0.0423750000000002
550.8000000000001,-0.0454090000000002
550.9999999999999,-0.0460120000000001
551.1999999999999,-0.0452660000000002
551.4,-0.0433370000000001
551.6,-0.0416850000000001
551.8000000000001,-0.0378720000000001
551.9999999999999,-0.034189
552.1999999999999,-0.03146
552.4,-0.0325860000000002
552.6,-0.036251
552.8000000000001,-0.0413719999999999
552.9999999999999,-0.045627
553.1999999999999,-0.0478200000000001
553.4,-0.0458220000000002
553.6,-0.0427880000000002
553.8000000000001,-0.0388230000000002
553.9999999999999,-0.036477
554.1999999999999,-0.0345150000000002
554.4,-0.0360020000000003
554.6,-0.036067
554.8000000000001,-0.036934
554.9999999999999,-0.0382570000000002
555.1999999999999,-0.0409139999999998
555.4,-0.0440740000000001
555.6,-0.0474350000000001
555.8000000000001,-0.048858
555.9999999999999,-0.0476640000000001
556.1999999999999,-0.0460470000000001
556.4,-0.044254
556.6,-0.0426630000000001
556.8000000000001,-0.0417279999999999
556.9999999999999,-0.042056
557.1999999999999,-0.0408720000000002
557.4,-0.0381409999999999
557.6,-0.0371049999999999
557.8000000000001,-0.0377830000000001
557.9999999999999,-0.0383270000000002
558.1999999999999,-0.038955
558.4,-0.0403570000000002
558.6,-0.0415460000000003
558.8000000000001,-0.0409760000000001
558.9999999999999,-0.0382350000000002
559.1999999999999,-0.0371890000000001
559.4,-0.035514
559.6,-0.034774
559.8000000000001,-0.0363260000000003
559.9999999999999,-0.0393349999999999
560.1999999999999,-0.0408530000000002
560.4,-0.0413740000000002
560.6,-0.0392019999999999
560.8000000000001,-0.0360949999999999
560.9999999999999,-0.0347870000000001
561.1999999999999,-0.0349340000000002
561.4,-0.0369380000000001
561.6,-0.0389630000000003
561.8000000000001,-0.0410479999999999
561.9999999999999,-0.0404219999999999
562.1999999999999,-0.0392909999999999
562.4,-0.0381
562.6,-0.0387430000000001
562.8000000000001,-0.0391889999999999
562.9999999999999,-0.039438
563.1999999999999,-0.0384670000000002
563.4,-0.0374769999999999
563.6,-0.03533
563.8000000000001,-0.035749
563.9999999999999,-0.0362940000000002
564.1999999999999,-0.0377879999999999
564.4,-0.0380799999999998
564.6,-0.0378440000000002
564.8000000000001,-0.0364560000000002
564.9999999999999,-0.0362339999999998
565.1999999999999,-0.035622
565.4,-0.0366059999999999
565.6,-0.038062
565.8000000000001,-0.0380850000000001
565.9999999999999,-0.039231
566.1999999999999,-0.043323
566.4,-0.045919
566.6,-0.047155
566.8000000000001,-0.0480369999999998
566.9999999999999,-0.0467850000000003
567.1999999999999,-0.0437000000000002
567.4,-0.041439
567.6,-0.0411740000000002
567.8000000000001,-0.0423659999999999
567.9999999999999,-0.0455580000000002
568.1999999999999,-0.0476309999999999
568.4,-0.0478320000000001
568.6,-0.0470649999999999
568.8000000000001,-0.0455070000000001
568.9999999999999,-0.0436309999999999
569.1999999999999,-0.042291
569.4,-0.0428790000000001
569.6,-0.0422480000000002
569.8000000000001,-0.0415700000000001
569.9999999999999,-0.0402370000000003
570.1999999999999,-0.0406170000000001
570.4,-0.0385680000000001
570.6,-0.0371000000000001
570.8000000000001,-0.033884
570.9999999999999,-0.0324620000000002
571.1999999999999,-0.0304830000000002
571.4,-0.0310209999999999
571.6,-0.0305180000000002
571.8000000000001,-0.0321340000000001
572.0000000000001,-0.034313
572.1999999999999,-0.0358960000000001
572.4,-0.0357470000000001
572.6,-0.0379149999999999
572.8000000000001,-0.0388209999999999
573.0000000000001,-0.0389509999999999
573.1999999999999,-0.0398200000000001
573.4,-0.042891
573.6,-0.04447
573.8000000000001,-0.0447890000000001
574.0000000000001,-0.0430860000000001
574.1999999999999,-0.0404089999999999
574.4,-0.0377650000000002
574.6,-0.0369360000000003
574.8000000000001,-0.0381420000000001
575.0000000000001,-0.0409100000000002
575.1999999999999,-0.0416780000000001
575.4,-0.0417450000000001
575.6,-0.0407190000000001
575.8000000000001,-0.0389660000000002
576.0000000000001,-0.0358689999999999
576.1999999999999,-0.035552
576.4,-0.0352380000000001
576.6,-0.035501
576.8000000000001,-0.0348710000000003
577.0000000000001,-0.0382320000000002
577.1999999999999,-0.0415040000000002
577.4,-0.044362
577.6,-0.0469859999999999
577.8000000000001,-0.0498500000000001
578.0000000000001,-0.0500560000000001
578.1999999999999,-0.0495700000000001
578.4,-0.046748
578.6,-0.0421620000000002
578.8000000000001,-0.0408710000000001
579.0000000000001,-0.0396330000000002
579.1999999999999,-0.0381240000000002
579.4,-0.0377010000000002
579.6,-0.0406310000000003
579.8000000000001,-0.0419369999999998
580.0000000000001,-0.0425460000000001
580.1999999999999,-0.0425810000000002
580.4,-0.0452820000000002
580.6,-0.0447709999999998
580.8000000000001,-0.0435600000000002
581.0000000000001,-0.0426410000000001
581.1999999999999,-0.0424160000000002
581.4,-0.0413800000000001
581.6,-0.0411700000000001
581.8000000000001,-0.0400529999999998
582.0000000000001,-0.0375779999999998
582.1999999999999,-0.0366219999999999
582.4,-0.036089
582.6,-0.0373730000000001
582.8000000000001,-0.0401880000000001
583.0000000000001,-0.0449960000000002
583.1999999999999,-0.0459019999999998
583.4,-0.045757
583.6,-0.0435220000000002
583.8000000000001,-0.041824
584.0000000000001,-0.039679
584.1999999999999,-0.040267
584.4,-0.0424389999999998
584.6,-0.0445739999999998
584.8000000000001,-0.0441709999999999
585.0000000000001,-0.0437560000000001
585.1999999999999,-0.0452180000000002
585.4,-0.0468610000000002
585.6,-0.0491610000000002
585.8000000000001,-0.0514840000000003
586.0000000000001,-0.0535390000000002
586.1999999999999,-0.0522580000000001
586.4,-0.0477859999999998
586.6,-0.0428709999999998
586.8000000000001,-0.0395440000000002
587.0000000000001,-0.037525
587.1999999999999,-0.0361600000000001
587.4,-0.034904
587.6,-0.0331909999999999
587.8000000000001,-0.032839
588.0000000000001,-0.032191
588.1999999999999,-0.0325960000000002
588.4,-0.0346359999999998
588.6,-0.0382850000000001
588.8000000000001,-0.0399639999999998
589.0000000000001,-0.040486
589.1999999999999,-0.0399730000000002
589.4,-0.0395000000000003
589.6,-0.0375830000000001
589.8000000000001,-0.0361320000000002
590.0000000000001,-0.0361739999999999
590.1999999999999,-0.037217
590.4,-0.0377740000000001
590.6,-0.0378860000000003
590.8000000000001,-0.0386969999999999
591.0000000000001,-0.0379590000000003
591.1999999999999,-0.0373589999999999
591.4,-0.0363730000000002
591.6,-0.0381200000000001
591.8000000000001,-0.0400070000000001
592.0000000000001,-0.0423810000000002
592.1999999999999,-0.0435319999999999
592.4,-0.045379
592.6,-0.0443549999999999
592.8000000000001,-0.0446919999999999
593.0000000000001,-0.0450759999999998
593.1999999999999,-0.047663
593.4,-0.0481259999999998
593.6,-0.04936
593.8000000000001,-0.0483150000000001
594.0000000000001,-0.04705
594.1999999999999,-0.0433910000000001
594.4,-0.0421960000000001
594.6,-0.0421339999999998
594.8000000000001,-0.0425530000000002
595.0000000000001,-0.0425599999999999
595.1999999999999,-0.0438279999999999
595.4,-0.0460670000000003
595.6,-0.0455360000000002
595.8000000000001,-0.044623
596.0000000000001,-0.0442970000000002
596.1999999999999,-0.0432610000000002
596.4,-0.041522
596.6,-0.0433060000000002
596.8000000000001,-0.0447440000000001
597.0000000000001,-0.0460880000000001
597.1999999999999,-0.0477289999999999
597.4,-0.0482620000000002
