Time (s),Shift (nm)
0.0,0.0
0.2000000000000454,0.0021179999999998
0.4000000000000341,0.0053129999999999
0.6000000000000227,0.0074739999999999
0.8000000000000114,0.0113339999999999
1.0,0.0135839999999998
1.2000000000000457,0.0122249999999999
1.400000000000034,0.0099949999999999
1.6000000000000227,0.0093039999999999
1.8000000000000114,0.0085919999999999
2.0,0.0074489999999998
2.200000000000045,0.0075059999999997
2.400000000000034,0.0081209999999998
2.6000000000000227,0.0102819999999999
2.800000000000012,0.0108179999999999
3.0,0.0106579999999998
3.200000000000045,0.0109159999999999
3.400000000000034,0.0108399999999999
3.6000000000000227,0.0104449999999998
3.8000000000000114,0.0097769999999999
4.0,0.0100859999999998
4.2000000000000455,0.0091319999999999
4.400000000000034,0.0077339999999999
4.600000000000023,0.0054689999999999
4.800000000000011,0.00339
5.0,0.0019709999999999
5.2000000000000455,0.0034079999999998
5.400000000000034,0.0075449999999999
5.600000000000023,0.0114419999999999
5.800000000000011,0.0142919999999999
6.0,0.0158669999999998
6.2000000000000455,0.0145859999999999
6.400000000000034,0.0122489999999999
6.600000000000023,0.0113799999999999
6.800000000000011,0.0113609999999999
7.0,0.0107869999999998
7.2000000000000455,0.0117459999999998
7.400000000000034,0.0135299999999998
7.600000000000023,0.0140619999999997
7.800000000000011,0.0141119999999999
8.0,0.0144469999999998
8.200000000000045,0.0137309999999999
8.400000000000034,0.0121609999999998
8.600000000000023,0.0104889999999999
8.800000000000011,0.0091869999999998
9.0,0.0084899999999998
9.200000000000044,0.0089269999999999
9.400000000000034,0.0078119999999999
9.600000000000025,0.0064909999999998
9.800000000000011,0.0059639999999998
10.0,0.0052139999999998
10.200000000000044,0.0049079999999999
10.400000000000034,0.0048379999999998
10.600000000000025,0.0056099999999998
10.800000000000011,0.0068519999999998
11.0,0.0085929999999998
11.200000000000044,0.0090639999999999
11.400000000000034,0.0098699999999998
11.600000000000025,0.0114999999999998
11.800000000000011,0.0113909999999999
12.0,0.0115949999999998
12.200000000000044,0.0112629999999998
12.400000000000034,0.0110089999999998
12.600000000000025,0.0105759999999999
12.800000000000011,0.0107099999999999
13.0,0.0108129999999999
13.200000000000044,0.0112029999999998
13.400000000000034,0.0137829999999998
13.600000000000025,0.0160169999999999
13.800000000000011,0.0171459999999998
14.0,0.0179019999999998
14.200000000000044,0.0183259999999998
14.400000000000034,0.0168459999999999
14.600000000000025,0.0125539999999999
14.800000000000011,0.0092669999999999
15.0,0.0063879999999998
15.200000000000044,0.0059479999999998
15.400000000000034,0.0057069999999999
15.600000000000025,0.0074509999999998
15.800000000000011,0.0091249999999998
16.0,0.0097519999999999
16.200000000000045,0.0086399999999999
16.400000000000034,0.0095929999999999
16.600000000000023,0.0121809999999999
16.80000000000001,0.0136879999999999
17.0,0.0136909999999998
17.200000000000045,0.013741
17.400000000000034,0.0106589999999999
17.600000000000023,0.0060349999999997
17.80000000000001,0.0031869999999998
18.0,0.0027789999999998
18.200000000000045,0.0033099999999999
18.400000000000038,0.0049129999999999
18.600000000000023,0.0086869999999998
18.80000000000001,0.0112769999999999
19.0,0.0146709999999998
19.200000000000045,0.0161639999999998
19.400000000000038,0.0172059999999998
19.600000000000023,0.0164959999999998
19.80000000000001,0.0167119999999998
20.0,0.0160949999999999
20.200000000000045,0.0139279999999999
20.400000000000038,0.0113719999999999
20.600000000000023,0.0080859999999998
20.80000000000001,0.0053019999999999
21.0,0.0024599999999999
21.200000000000045,0.0023349999999999
21.400000000000038,0.0039819999999999
21.600000000000023,0.0070699999999999
21.80000000000001,0.0081169999999999
22.0,0.0069499999999997
22.200000000000045,0.0068169999999998
22.400000000000038,0.0064819999999998
22.600000000000023,0.0062999999999999
22.80000000000001,0.0058509999999998
23.0,0.0052549999999997
23.200000000000045,0.0037699999999998
23.400000000000038,0.003201
23.600000000000023,0.0029849999999997
23.80000000000001,0.0034659999999999
24.0,0.0047489999999998
24.200000000000045,0.0038399999999998
24.400000000000038,0.0025059999999998
24.600000000000023,0.0004699999999999
24.80000000000001,0.0001099999999998
25.0,5.299999999985872e-05
25.200000000000045,0.0011579999999999
25.400000000000038,0.0001819999999999
25.600000000000023,-0.000132
25.80000000000001,-0.0014230000000001
26.0,-0.0017660000000001
26.200000000000045,0.000842
26.400000000000038,0.0045219999999999
26.600000000000023,0.0068399999999999
26.80000000000001,0.0069019999999999
27.0,0.0059989999999998
27.200000000000045,0.0040439999999999
27.400000000000038,0.0033639999999999
27.600000000000023,0.0032969999999998
27.80000000000001,0.0057849999999999
28.0,0.0085039999999998
28.200000000000045,0.0090939999999999
28.400000000000038,0.0068539999999999
28.600000000000023,0.0055139999999997
28.80000000000001,0.0060699999999997
29.0,0.0060979999999999
29.200000000000045,0.0074999999999998
29.400000000000038,0.0102409999999999
29.600000000000023,0.0132249999999998
29.80000000000001,0.0133749999999999
30.0,0.0118459999999998
30.200000000000045,0.0087509999999999
30.400000000000038,0.0073809999999998
30.600000000000023,0.0065149999999998
30.80000000000001,0.0072309999999999
31.0,0.0103109999999999
31.200000000000045,0.0150279999999998
31.400000000000038,0.0157069999999999
31.600000000000023,0.0132449999999999
31.80000000000001,0.0093749999999999
32.0,0.0070479999999999
32.200000000000045,0.005336
32.400000000000034,0.0045479999999999
32.60000000000002,0.0044329999999999
32.80000000000001,0.0059559999999998
33.0,0.0050879999999999
33.200000000000045,0.0028599999999998
33.400000000000034,0.0024369999999998
33.60000000000002,0.003506
33.80000000000001,0.0026799999999997
34.0,0.0022259999999998
34.200000000000045,0.0018209999999998
34.400000000000034,0.002475
34.60000000000002,0.0030929999999997
34.80000000000001,0.0036639999999998
35.0,0.0035909999999999
35.200000000000045,0.0044649999999999
35.400000000000034,0.003946
35.60000000000002,0.0028489999999998
35.80000000000001,0.0034239999999998
36.0,0.0053389999999999
36.200000000000045,0.0070139999999998
36.400000000000034,0.0078209999999998
36.60000000000002,0.0080839999999999
36.80000000000001,0.0068249999999998
37.0,0.0077119999999999
37.200000000000045,0.0085459999999999
37.400000000000034,0.0117459999999998
37.60000000000002,0.0139969999999998
37.80000000000001,0.0157979999999999
38.0,0.0128579999999998
38.200000000000045,0.009552
38.400000000000034,0.0065819999999998
38.60000000000002,0.0062489999999999
38.80000000000001,0.0076719999999999
39.0,0.0094949999999998
39.200000000000045,0.0095369999999999
39.400000000000034,0.0063239999999999
39.60000000000002,0.0015819999999999
39.80000000000001,-0.0031000000000001
40.0,-0.003193
40.200000000000045,-0.00034
40.400000000000034,0.0046349999999999
40.60000000000002,0.0095739999999999
40.80000000000001,0.0136119999999999
41.0,0.0135039999999999
41.200000000000045,0.0112789999999998
41.400000000000034,0.0104879999999998
41.60000000000002,0.0105629999999998
41.80000000000001,0.0113979999999997
42.0,0.0130979999999998
42.200000000000045,0.0151749999999999
42.400000000000034,0.0154019999999999
42.60000000000002,0.0147089999999998
42.80000000000001,0.0120899999999999
43.0,0.0088729999999999
43.200000000000045,0.0064949999999999
43.400000000000034,0.0053649999999998
43.60000000000002,0.0051179999999999
43.80000000000001,0.0037389999999999
44.0,0.0036119999999999
44.200000000000045,0.00478
44.400000000000034,0.0036959999999999
44.60000000000002,0.0016999999999998
44.80000000000001,0.0025979999999998
45.0,0.003784
45.200000000000045,0.0028079999999999
45.400000000000034,0.0027349999999999
45.60000000000002,0.0037159999999998
45.80000000000001,0.0044299999999999
46.0,0.0049929999999998
46.200000000000045,0.0059959999999998
46.400000000000034,0.0063979999999999
46.60000000000002,0.0058499999999999
46.80000000000001,0.0066499999999998
47.0,0.0063889999999999
47.200000000000045,0.0064689999999998
47.400000000000034,0.0072589999999999
47.60000000000002,0.0086079999999999
47.80000000000001,0.0080079999999997
48.0,0.0090939999999999
48.200000000000045,0.0101559999999998
48.400000000000034,0.0101649999999999
48.60000000000002,0.0084389999999998
48.80000000000001,0.0077719999999998
49.0,0.0053159999999998
49.200000000000045,0.0030689999999999
49.400000000000034,0.0019289999999998
49.60000000000002,0.0017069999999999
49.80000000000001,0.0003329999999999
50.0,-0.0002410000000001
50.200000000000045,8.599999999980845e-05
50.400000000000034,2.999999999997449e-05
50.60000000000002,4.499999999985072e-05
50.80000000000001,0.0009269999999999
51.0,0.0024499999999998
51.200000000000045,0.0033779999999998
51.400000000000034,0.0047359999999998
51.60000000000002,0.0056449999999999
51.80000000000001,0.0049269999999999
52.0,0.0030139999999998
52.200000000000045,0.0027709999999998
52.400000000000034,0.0028239999999999
52.60000000000002,0.00261
52.80000000000001,0.0017759999999999
53.0,0.0026249999999998
53.200000000000045,0.0030189999999998
53.400000000000034,0.0041619999999999
53.60000000000002,0.0050589999999999
53.80000000000001,0.0063329999999999
54.0,0.0041459999999999
54.200000000000045,0.0015439999999999
54.400000000000034,-0.002542
54.60000000000002,-0.0024049999999999
54.80000000000001,-0.000364
55.0,0.0024829999999997
55.200000000000045,0.0039099999999998
55.400000000000034,0.0066199999999998
55.60000000000002,0.0062919999999999
55.80000000000001,0.0051619999999998
56.0,0.0051139999999998
56.200000000000045,0.0060249999999999
56.400000000000034,0.0063069999999998
56.60000000000002,0.0052809999999998
56.80000000000001,0.0049299999999998
57.0,0.0053159999999998
57.200000000000045,0.0079409999999999
57.400000000000034,0.0106469999999998
57.60000000000002,0.0139949999999999
57.80000000000001,0.0153189999999998
58.0,0.0144689999999998
58.200000000000045,0.011822
58.400000000000034,0.0083679999999999
58.60000000000002,0.0047629999999998
58.80000000000001,0.0043839999999999
59.0,0.0063519999999999
59.200000000000045,0.0075829999999998
59.400000000000034,0.0087169999999998
59.60000000000002,0.0103569999999999
59.80000000000007,0.0103149999999998
60.0,0.0086469999999998
60.200000000000045,0.0060289999999998
60.39999999999998,0.002143
60.60000000000002,0.0002999999999999
60.80000000000007,-0.0020380000000002
61.0,-0.00231
61.200000000000045,-0.001654
61.39999999999998,0.0008599999999998
61.60000000000002,0.0018889999999998
61.80000000000007,0.0038619999999998
62.0,0.0044609999999998
62.200000000000045,0.0043409999999999
62.39999999999998,0.0038169999999999
62.60000000000002,0.0048429999999999
62.80000000000007,0.0057349999999998
63.0,0.0062439999999999
63.200000000000045,0.0068089999999998
63.39999999999998,0.005776
63.60000000000002,0.0041269999999999
63.80000000000007,0.0017539999999998
64.0,0.0001039999999998
64.20000000000005,0.0006419999999998
64.39999999999998,0.0028289999999999
64.60000000000002,0.0050519999999998
64.80000000000007,0.0073109999999998
65.0,0.0099149999999998
65.20000000000005,0.0091689999999999
65.39999999999998,0.0095749999999998
65.60000000000002,0.0074459999999998
65.80000000000007,0.0065639999999997
66.0,0.0057949999999999
66.20000000000005,0.0075609999999999
66.39999999999998,0.0078649999999997
66.60000000000002,0.0101479999999998
66.80000000000007,0.0112879999999999
67.0,0.0125049999999999
67.20000000000005,0.0115679999999998
67.39999999999998,0.0105079999999999
67.60000000000002,0.0084069999999998
67.80000000000007,0.0065069999999998
68.0,0.0050989999999999
68.20000000000005,0.0050339999999999
68.39999999999998,0.0047759999999998
68.60000000000002,0.0051839999999998
68.80000000000007,0.0072419999999999
69.0,0.0080889999999997
69.20000000000005,0.007919
69.39999999999998,0.0074759999999998
69.60000000000002,0.0070399999999999
69.80000000000007,0.0043549999999998
70.0,0.0026069999999998
70.20000000000005,0.0004259999999998
70.39999999999998,-0.000199
70.60000000000002,-0.0006099999999999
70.80000000000007,-0.000223
71.0,-0.000715
71.20000000000005,0.0003269999999999
71.39999999999998,0.0001309999999998
71.60000000000002,-0.000739
71.80000000000007,9.799999999993148e-05
72.0,0.0004829999999997
72.20000000000005,-0.0009419999999999
72.39999999999998,-0.0016010000000001
72.60000000000002,-0.000753
72.80000000000007,-0.000618
73.0,0.0009739999999998
73.20000000000005,0.0035389999999999
73.39999999999998,0.0046699999999999
73.60000000000002,0.0057399999999998
73.80000000000007,0.0063549999999998
74.0,0.0075459999999998
74.20000000000005,0.0090529999999999
74.39999999999998,0.0103669999999997
74.60000000000002,0.0081909999999998
74.80000000000007,0.0049979999999998
75.0,0.0006759999999998
75.20000000000005,-0.001119
75.39999999999998,-0.0030810000000001
75.60000000000002,-0.002107
75.80000000000007,0.0001669999999998
76.0,0.0030419999999999
76.20000000000005,0.0044629999999998
76.39999999999998,0.0071039999999999
76.60000000000002,0.0108869999999998
76.80000000000007,0.0120919999999999
77.0,0.0105149999999998
77.20000000000005,0.0076229999999999
77.39999999999998,0.0044049999999999
77.60000000000002,-0.0003859999999999
77.80000000000007,-0.003554
78.0,-0.0042170000000001
78.20000000000005,-0.0031530000000001
78.39999999999998,-0.000266
78.60000000000002,0.0024239999999999
78.80000000000007,0.0041269999999999
79.0,0.0048199999999998
79.20000000000005,0.0042189999999999
79.39999999999998,0.0038129999999998
79.60000000000002,0.0032899999999997
79.80000000000007,0.00478
80.0,0.0065299999999999
80.20000000000005,0.0081049999999998
80.39999999999998,0.008502
80.60000000000002,0.0088639999999999
80.80000000000007,0.0071639999999999
81.0,0.0054079999999998
81.20000000000005,0.0037859999999998
81.39999999999998,0.0025249999999998
81.60000000000002,0.0009389999999998
81.80000000000007,0.0002869999999999
82.0,7.299999999998974e-05
82.20000000000005,0.0004329999999999
82.39999999999998,-0.000339
82.60000000000002,-0.000234
82.80000000000007,0.0003989999999998
83.0,0.0007069999999997
83.20000000000005,-0.001049
83.39999999999998,-0.0033960000000001
83.60000000000002,-0.0054320000000001
83.80000000000007,-0.0067730000000001
84.0,-0.007479
84.20000000000005,-0.006116
84.39999999999998,-0.0030070000000002
84.60000000000002,0.0003169999999999
84.80000000000007,0.0025109999999999
85.0,0.0040509999999998
85.20000000000005,0.0041239999999997
85.39999999999998,0.0040879999999998
85.60000000000002,0.0027149999999998
85.80000000000007,0.0025119999999998
86.0,0.0023489999999999
86.20000000000005,0.0030379999999998
86.39999999999998,0.0039529999999998
86.60000000000002,0.0034929999999999
86.80000000000007,0.0033019999999999
87.0,0.0034649999999998
87.20000000000005,0.0050919999999998
87.39999999999998,0.0033299999999998
87.60000000000002,0.0032259999999999
87.80000000000007,0.0021259999999998
88.0,0.0030089999999998
88.20000000000005,0.0023469999999998
88.39999999999998,0.0037709999999999
88.60000000000002,0.0048439999999998
88.80000000000007,0.0072409999999998
89.0,0.0066509999999999
89.20000000000005,0.0075009999999999
89.39999999999998,0.0076139999999997
89.60000000000002,0.0067239999999999
89.80000000000007,0.0030129999999999
90.0,0.0019409999999999
90.20000000000005,-0.0004600000000001
90.39999999999998,-0.0008750000000001
90.60000000000002,-0.0003780000000002
90.80000000000008,0.0025749999999999
91.0,0.0023809999999999
91.20000000000005,0.0018539999999998
91.39999999999998,0.0014239999999998
91.60000000000002,0.0024929999999998
91.80000000000008,0.0005679999999999
92.0,0.0002159999999999
92.20000000000005,0.0004819999999998
92.39999999999998,0.0018019999999998
92.60000000000002,0.0016999999999998
92.80000000000008,0.0024359999999998
93.0,0.0022149999999998
93.20000000000005,0.0023249999999999
93.39999999999998,0.0001629999999999
93.60000000000002,-0.0007640000000002
93.80000000000008,-0.00062
94.0,7.099999999993223e-05
94.20000000000005,-0.0007190000000001
94.39999999999998,-0.000868
94.60000000000002,-0.0008220000000001
94.80000000000008,-0.0013310000000001
95.0,-0.001249
95.20000000000005,-0.0007719999999999
95.39999999999998,-0.001219
95.60000000000002,-0.0031770000000002
95.80000000000008,-0.0039470000000001
96.0,-0.004893
96.20000000000005,-0.005363
96.39999999999998,-0.005022
96.60000000000002,-0.003036
96.80000000000008,-0.0018580000000001
97.0,0.0008639999999999
97.20000000000005,0.0032639999999999
97.39999999999998,0.0054299999999998
97.60000000000002,0.0040669999999998
97.80000000000008,0.0041179999999998
98.0,0.0031109999999998
98.20000000000005,0.0020729999999999
98.39999999999998,0.0007989999999999
98.60000000000002,0.0023239999999999
98.80000000000008,0.0028569999999998
99.0,0.0019269999999997
99.20000000000005,0.0015539999999998
99.39999999999998,0.0013739999999999
99.60000000000002,0.0017719999999998
99.80000000000008,0.0001779999999997
100.0,-3.900000000012227e-05
100.20000000000005,-0.000326
100.39999999999998,0.0009589999999999
100.60000000000002,0.0004819999999998
100.80000000000008,0.0001039999999998
101.0,-0.00103
101.20000000000005,-0.0013150000000001
101.39999999999998,-0.0020600000000001
101.60000000000002,-0.002132
101.80000000000008,-0.000539
102.0,0.0012419999999999
102.20000000000005,0.0014949999999998
102.39999999999998,0.0015099999999999
102.60000000000002,0.0006419999999998
102.80000000000008,0.0003499999999998
103.0,-0.000293
103.20000000000005,4.999999999988347e-05
103.39999999999998,-0.0006600000000001
103.60000000000002,-7.600000000018703e-05
103.80000000000008,7.699999999988272e-05
104.0,0.0012089999999997
104.20000000000005,0.0020859999999998
104.39999999999998,0.0028529999999999
104.60000000000002,0.0025059999999998
104.80000000000008,0.0021409999999999
105.0,0.0008819999999998
105.20000000000005,-0.0002140000000001
105.39999999999998,-0.001211
105.60000000000002,-0.002596
105.80000000000008,-0.0031940000000001
106.0,-0.0035470000000001
106.20000000000005,-0.0040090000000001
106.39999999999998,-0.004585
106.60000000000002,-0.002979
106.80000000000008,-0.002393
107.0,-0.002183
107.20000000000005,-0.00235
107.39999999999998,-0.00238
107.60000000000002,-0.0029609999999999
107.80000000000008,-0.0018060000000001
108.0,-0.001862
108.20000000000005,-0.002528
108.39999999999998,-0.0022630000000001
108.60000000000002,-0.0003410000000001
108.80000000000008,-0.0001190000000002
109.0,0.0014329999999997
109.20000000000005,0.0021339999999998
109.39999999999998,0.0048209999999999
109.60000000000002,0.0046829999999999
109.80000000000008,0.0045239999999999
110.0,0.0031219999999998
110.20000000000005,0.0041989999999998
110.39999999999998,0.0015199999999999
110.60000000000002,0.0013459999999998
110.80000000000008,-0.0001010000000001
111.0,-0.0005440000000001
111.20000000000005,-0.0041550000000001
111.39999999999998,-0.005943
111.60000000000002,-0.009533
111.80000000000008,-0.0117930000000001
112.0,-0.0114390000000001
112.20000000000005,-0.0090450000000001
112.39999999999998,-0.0047380000000001
112.60000000000002,-0.0004160000000001
112.80000000000008,0.0028479999999999
113.0,0.0041999999999999
113.20000000000005,0.0044089999999998
113.39999999999998,0.002699
113.60000000000002,0.0005729999999999
113.80000000000008,-0.0008700000000001
114.0,-0.002949
114.20000000000005,-0.0032850000000002
114.39999999999998,-0.0061650000000001
114.60000000000002,-0.007141
114.80000000000008,-0.0071620000000001
115.0,-0.0063110000000001
115.20000000000005,-0.006682
115.39999999999998,-0.0051420000000002
115.60000000000002,-0.0051240000000001
115.80000000000008,-0.006035
116.0,-0.0060230000000001
116.20000000000005,-0.0056599999999999
116.39999999999998,-0.0048540000000001
116.60000000000002,-0.005641
116.80000000000008,-0.0055470000000001
117.0,-0.0061580000000001
117.20000000000005,-0.0050750000000001
117.39999999999998,-0.003727
117.60000000000002,-0.0010800000000001
117.80000000000008,-0.0004350000000001
118.0,-0.0006330000000001
118.20000000000005,-0.0009430000000001
118.39999999999998,-0.0023820000000001
118.60000000000002,-0.0035439999999999
118.80000000000008,-0.003643
119.0,-0.003452
119.20000000000005,-0.0039760000000002
119.39999999999998,-0.0031020000000001
119.60000000000002,-0.003247
119.80000000000008,-0.0032150000000001
120.0,-0.0022620000000002
120.20000000000005,0.0003239999999999
120.39999999999998,0.0012389999999999
120.60000000000002,0.0022569999999999
120.80000000000008,0.0035829999999998
121.0,0.004394
121.20000000000005,0.0019839999999999
121.39999999999998,0.0002059999999999
121.60000000000002,-0.001441
121.80000000000008,-0.0035439999999999
122.0,-0.0042030000000001
122.20000000000005,-0.0030730000000001
122.39999999999998,-0.0006920000000001
122.60000000000002,0.0006409999999998
122.80000000000008,0.0015029999999998
123.0,0.0004469999999998
123.20000000000005,-0.0006330000000001
123.39999999999998,-0.002453
123.60000000000002,-0.00191
123.80000000000008,-0.000601
124.0,0.0016659999999999
124.20000000000005,0.0014729999999998
124.39999999999998,0.001031
124.60000000000002,-0.000137
124.80000000000008,-0.0009190000000001
125.0,-0.0025350000000001
125.20000000000005,-0.0021250000000001
125.39999999999998,7.599999999996498e-05
125.60000000000002,0.0026039999999998
125.80000000000008,0.0044939999999999
126.0,0.0067479999999999
126.20000000000005,0.0085459999999999
126.39999999999998,0.0076629999999999
126.60000000000002,0.0055919999999998
126.80000000000008,0.0035649999999998
127.0,0.0022549999999998
127.20000000000005,0.0010969999999999
127.39999999999998,0.0006919999999999
127.60000000000002,0.0015099999999999
127.80000000000008,0.0028119999999998
128.0,0.0014959999999999
128.20000000000005,0.0009309999999997
128.39999999999998,0.0005279999999998
128.60000000000002,-0.0002270000000001
128.80000000000007,-0.001662
129.0,-0.0023760000000001
129.20000000000005,-0.002582
129.39999999999998,-0.002726
129.60000000000002,-0.003495
129.80000000000007,-0.0037440000000001
130.0,-0.0032150000000001
130.20000000000005,-0.004272
130.39999999999998,-0.005956
130.60000000000002,-0.0052150000000001
130.80000000000007,-0.0041760000000001
131.0,-0.004566
131.20000000000005,-0.0047940000000001
131.39999999999998,-0.004763
131.60000000000002,-0.006286
131.80000000000007,-0.0082630000000001
132.0,-0.0074050000000001
132.20000000000005,-0.0044630000000001
132.39999999999998,-0.002663
132.60000000000002,-0.0020680000000001
132.80000000000007,-0.0015230000000001
133.0,-0.0012320000000001
133.20000000000005,-0.001678
133.39999999999998,-0.0019770000000001
133.60000000000002,-0.0012160000000001
133.80000000000007,-0.001767
134.0,-0.0016660000000001
134.20000000000005,-0.001065
134.39999999999998,0.0012709999999998
134.60000000000002,0.0031699999999998
134.80000000000007,0.0044519999999999
135.0,0.0037469999999999
135.20000000000005,0.0013799999999999
135.39999999999998,-0.0015830000000001
135.60000000000002,-0.0036720000000001
135.80000000000007,-0.003824
136.0,-0.004982
136.20000000000005,-0.005937
136.39999999999998,-0.0068510000000001
136.60000000000002,-0.0084490000000001
136.80000000000007,-0.0099390000000001
137.0,-0.010639
137.20000000000005,-0.009171
137.39999999999998,-0.006763
137.60000000000002,-0.0048259999999999
137.80000000000007,-0.00374
138.0,-0.0018010000000001
138.20000000000005,-0.0030620000000001
138.39999999999998,-0.0052180000000001
138.60000000000002,-0.007702
138.80000000000007,-0.008669
139.0,-0.009948
139.20000000000005,-0.0085220000000001
139.39999999999998,-0.0060660000000001
139.60000000000002,-0.0027210000000001
139.80000000000007,-0.0004890000000001
140.0,0.0005189999999999
140.20000000000005,0.0004459999999999
140.39999999999998,6.499999999998174e-05
140.60000000000002,-0.00147
140.80000000000007,-0.0021220000000001
141.0,-0.0014130000000001
141.20000000000005,-0.000253
141.39999999999998,-0.00136
141.60000000000002,-0.001851
141.80000000000007,-0.0025300000000001
142.0,-0.0032290000000001
142.20000000000005,-0.006636
142.39999999999998,-0.009268
142.60000000000002,-0.0101330000000001
142.80000000000007,-0.008483
143.0,-0.006772
143.20000000000005,-0.0026559999999999
143.39999999999998,0.0019949999999999
143.60000000000002,0.0045749999999999
143.80000000000007,0.0037549999999999
144.0,0.0022849999999998
144.20000000000005,2.0999999999826716e-05
144.39999999999998,-0.002453
144.60000000000002,-0.0032340000000001
144.80000000000007,-0.004326
145.0,-0.005551
145.20000000000005,-0.0062360000000001
145.39999999999998,-0.0062090000000001
145.60000000000002,-0.0066030000000001
145.80000000000007,-0.006269
146.0,-0.0049290000000001
146.20000000000005,-0.0046270000000001
146.39999999999998,-0.004788
146.60000000000002,-0.002963
146.80000000000007,-0.000448
147.0,0.0002949999999999
147.20000000000005,0.0006649999999999
147.39999999999998,-0.000377
147.60000000000002,-0.003465
147.80000000000007,-0.0072890000000001
148.0,-0.0098180000000001
148.20000000000005,-0.01072
148.39999999999998,-0.0093480000000001
148.60000000000002,-0.0071309999999999
148.80000000000007,-0.004196
149.0,-0.0014880000000001
149.20000000000005,0.0001589999999997
149.39999999999998,0.0011959999999999
149.60000000000002,0.0006169999999998
149.80000000000007,-0.002871
150.0,-0.005489
150.20000000000005,-0.006952
150.39999999999998,-0.0080920000000002
150.60000000000002,-0.008142
150.80000000000007,-0.006153
151.0,-0.0056010000000001
151.20000000000005,-0.006007
151.39999999999998,-0.005757
151.60000000000002,-0.0073580000000001
151.80000000000007,-0.0089190000000001
152.0,-0.008256
152.20000000000005,-0.007195
152.39999999999998,-0.0063350000000002
152.60000000000002,-0.0030800000000001
152.80000000000007,0.0010129999999999
153.0,0.0020059999999999
153.20000000000005,0.0002849999999998
153.39999999999998,-0.001673
153.60000000000002,-0.0034880000000001
153.80000000000007,-0.0045980000000001
154.0,-0.005881
154.20000000000005,-0.005184
154.39999999999998,-0.003881
154.60000000000002,-0.004383
154.80000000000007,-0.005541
155.0,-0.004944
155.20000000000005,-0.0036630000000001
155.39999999999998,-0.0052580000000002
155.60000000000002,-0.0074590000000001
155.80000000000007,-0.0084570000000001
156.0,-0.0079580000000001
156.20000000000005,-0.0067680000000001
156.39999999999998,-0.005279
156.60000000000002,-0.001646
156.80000000000007,-0.001047
157.0,-0.0024300000000001
157.20000000000005,-0.004016
157.39999999999998,-0.0031860000000001
157.60000000000002,-0.003627
157.80000000000007,-0.003513
158.0,-0.00329
158.20000000000005,-0.0033100000000001
158.39999999999998,-0.004026
158.60000000000002,-0.0040600000000001
158.80000000000007,-0.0047540000000001
159.0,-0.004277
159.20000000000005,-0.003519
159.39999999999998,-0.002169
159.60000000000002,-0.000102
159.80000000000007,0.0030629999999998
160.0,0.004637
160.20000000000005,0.0049429999999999
160.39999999999998,0.0038059999999999
160.60000000000002,0.0015189999999998
160.80000000000007,-0.00051
161.0,-0.00153
161.20000000000005,-0.002529
161.39999999999998,-0.003824
161.60000000000002,-0.004841
161.80000000000007,-0.0056880000000001
162.0,-0.0062790000000001
162.20000000000005,-0.0063010000000001
162.39999999999998,-0.005319
162.60000000000002,-0.003886
162.80000000000007,-0.0021170000000001
163.0,-0.000763
163.20000000000005,-0.0001810000000002
163.39999999999998,0.0006429999999999
163.60000000000002,-0.0006030000000001
163.80000000000007,-0.0007140000000001
164.0,-0.001711
164.20000000000005,0.0002659999999998
164.39999999999998,0.0013299999999998
164.60000000000002,0.0021309999999998
164.80000000000007,-0.0011500000000002
165.0,-0.003368
165.20000000000005,-0.007716
165.39999999999998,-0.011028
165.60000000000002,-0.011635
165.80000000000007,-0.0083280000000001
166.0,-0.005336
166.20000000000005,-0.004056
166.39999999999998,-0.00415
166.60000000000002,-0.004221
166.80000000000007,-0.0043090000000001
167.0,-0.0049830000000001
167.20000000000005,-0.005929
167.39999999999998,-0.0054850000000001
167.60000000000002,-0.0043090000000001
167.80000000000007,-0.0024680000000001
168.0,-0.000785
168.20000000000005,-0.00017
168.39999999999998,-2.500000000016378e-05
168.60000000000002,-0.0037520000000001
168.80000000000007,-0.0095550000000002
169.0,-0.0146570000000001
169.20000000000005,-0.014958
169.39999999999998,-0.0152270000000001
169.60000000000002,-0.0129400000000001
169.80000000000007,-0.0107430000000001
170.0,-0.008531
170.20000000000005,-0.0072020000000001
170.39999999999998,-0.005694
170.60000000000002,-0.0064810000000001
170.80000000000007,-0.0069640000000001
171.0,-0.0070959999999999
171.20000000000005,-0.008825
171.39999999999998,-0.0113910000000001
171.60000000000002,-0.0113610000000001
171.80000000000007,-0.010118
172.0,-0.0109259999999999
172.20000000000005,-0.0100200000000001
172.39999999999998,-0.009319
172.60000000000002,-0.007705
172.80000000000007,-0.0084380000000001
173.0,-0.0066289999999999
173.20000000000005,-0.005487
173.39999999999998,-0.004099
173.60000000000002,-0.0043730000000001
173.80000000000007,-0.0034100000000001
174.0,-0.0026620000000001
174.20000000000005,-0.0025400000000002
174.39999999999998,-0.003638
174.60000000000002,-0.0056869999999999
174.80000000000007,-0.0070370000000001
175.0,-0.007967
175.20000000000005,-0.0078040000000001
175.39999999999998,-0.0073210000000001
175.60000000000002,-0.00604
175.80000000000007,-0.005991
176.0,-0.005505
176.20000000000005,-0.0051960000000002
176.39999999999998,-0.0022790000000001
176.60000000000002,0.0002559999999998
176.80000000000007,0.0013419999999999
177.0,-0.000296
177.20000000000005,-0.002264
177.39999999999998,-0.0043460000000001
177.60000000000002,-0.005916
177.80000000000007,-0.0061650000000001
178.0,-0.0061630000000001
178.20000000000005,-0.0082980000000001
178.39999999999998,-0.011028
178.60000000000002,-0.0137640000000001
178.80000000000007,-0.0137290000000001
179.0,-0.011862
179.20000000000005,-0.00794
179.39999999999998,-0.0051290000000001
179.60000000000002,-0.0029480000000001
179.80000000000007,-0.0040360000000001
180.0,-0.0039250000000001
180.20000000000005,-0.0037060000000002
180.4,-0.002793
180.6,-0.0014390000000001
180.80000000000007,0.0006859999999999
181.0,0.0010969999999999
181.20000000000005,-0.0006460000000001
181.4,-0.0037770000000001
181.6,-0.0047130000000001
181.80000000000007,-0.005481
182.0,-0.007505
182.20000000000005,-0.008601
182.4,-0.0084090000000001
182.6,-0.00861
182.80000000000007,-0.0097420000000001
183.0,-0.010496
183.20000000000005,-0.011147
183.4,-0.011535
183.6,-0.013376
183.80000000000007,-0.014445
184.0,-0.014736
184.20000000000005,-0.013122
184.4,-0.0119470000000001
184.6,-0.01082
184.80000000000007,-0.007557
185.0,-0.004445
185.20000000000005,-0.0029590000000001
185.4,-0.002277
185.6,-0.0019330000000001
185.80000000000007,-0.0033050000000001
186.0,-0.0057040000000001
186.20000000000005,-0.0078720000000001
186.4,-0.008145
186.6,-0.0081170000000001
186.80000000000007,-0.0081440000000001
187.0,-0.0076260000000001
187.20000000000005,-0.007884
187.4,-0.0092070000000001
187.6,-0.0100729999999999
187.80000000000007,-0.0108030000000001
188.0,-0.011057
188.20000000000005,-0.0114670000000001
188.4,-0.0114580000000001
188.6,-0.0119690000000001
188.80000000000007,-0.013875
189.0,-0.0158090000000001
189.20000000000005,-0.0165540000000001
189.4,-0.015897
189.6,-0.014796
189.80000000000007,-0.012826
190.0,-0.010958
190.20000000000005,-0.0087670000000001
190.4,-0.0091880000000001
190.6,-0.0096990000000001
190.80000000000007,-0.0101950000000001
191.0,-0.0099170000000001
191.20000000000005,-0.0098880000000001
191.4,-0.0106940000000002
191.6,-0.012969
191.80000000000007,-0.014046
192.0,-0.0148680000000001
192.20000000000005,-0.0167890000000001
192.4,-0.016029
192.6,-0.0118250000000001
192.80000000000007,-0.0111540000000001
193.0,-0.0117900000000001
193.20000000000005,-0.0099310000000001
193.4,-0.0076980000000002
193.6,-0.00719
193.80000000000007,-0.0044270000000001
194.0,-0.0018820000000001
194.20000000000005,-0.0014359999999999
194.4,-0.0030610000000002
194.6,-0.00506
194.80000000000007,-0.0060150000000001
195.0,-0.005948
195.20000000000005,-0.007206
195.4,-0.0078440000000001
195.6,-0.0083730000000001
195.80000000000007,-0.0082120000000001
196.0,-0.0071690000000002
196.20000000000005,-0.00326
196.4,0.0004909999999997
196.6,0.0030359999999998
196.80000000000007,0.002637
197.0,-0.0002220000000001
197.20000000000005,-0.0039630000000001
197.4,-0.0093199999999999
197.6,-0.014971
197.80000000000007,-0.018871
198.0,-0.018896
198.20000000000005,-0.0179330000000002
198.4,-0.0150890000000001
198.6,-0.010393
198.80000000000007,-0.0070110000000001
199.0,-0.006413
199.20000000000005,-0.0073390000000002
199.4,-0.00845
199.6,-0.0100729999999999
199.80000000000007,-0.009864
200.0,-0.008278
200.20000000000005,-0.006189
200.4,-0.004448
200.6,-0.0026700000000001
200.80000000000007,-0.0025110000000001
201.0,-0.004045
201.20000000000005,-0.0064490000000001
201.4,-0.009346
201.6,-0.0115040000000001
201.80000000000007,-0.0122349999999999
202.0,-0.012688
202.20000000000005,-0.0121310000000001
202.4,-0.010942
202.6,-0.009349
202.80000000000007,-0.0071610000000001
203.0,-0.0041889999999999
203.20000000000005,-0.0035360000000002
203.4,-0.003201
203.6,-0.003295
203.80000000000007,-0.0022600000000001
204.0,-0.0017530000000001
204.20000000000005,-0.0003330000000001
204.4,0.0001299999999999
204.6,3.999999999981796e-05
204.80000000000007,-0.002836
205.0,-0.006277
205.20000000000005,-0.009192
205.4,-0.0093830000000001
205.6,-0.0093160000000001
205.80000000000007,-0.0099839999999999
206.0,-0.0112890000000001
206.20000000000005,-0.010205
206.4,-0.0112860000000001
206.6,-0.0124490000000001
206.80000000000007,-0.0132579999999999
207.0,-0.0129180000000002
207.20000000000005,-0.013692
207.4,-0.0113850000000002
207.6,-0.0108670000000001
207.80000000000007,-0.007975
208.0,-0.0038630000000001
208.20000000000005,0.0004499999999998
208.4,0.0006219999999999
208.6,0.0004039999999998
208.80000000000007,-0.0003270000000001
209.0,-0.0028370000000002
209.20000000000005,-0.007443
209.4,-0.0101250000000001
209.6,-0.0102380000000001
209.80000000000007,-0.011891
210.0,-0.0133370000000001
210.20000000000005,-0.013295
210.4,-0.011937
210.6,-0.0103950000000001
210.80000000000007,-0.0101630000000001
211.0,-0.0097610000000001
211.20000000000005,-0.0098280000000001
211.4,-0.010936
211.6,-0.01208
211.80000000000007,-0.0112690000000001
212.0,-0.009578
212.20000000000005,-0.007382
212.4,-0.0053580000000001
212.6,-0.004423
212.80000000000007,-0.0038250000000001
213.0,-0.004577
213.20000000000005,-0.0061269999999999
213.4,-0.007174
213.6,-0.0079170000000001
213.80000000000007,-0.008585
214.0,-0.0095260000000001
214.20000000000005,-0.0100840000000002
214.4,-0.010137
214.6,-0.0096170000000002
214.80000000000007,-0.009182
215.0,-0.007597
215.20000000000005,-0.006555
215.4,-0.0071940000000001
215.6,-0.0083410000000001
215.80000000000007,-0.0087210000000002
216.0,-0.009017
216.20000000000005,-0.0096340000000001
216.4,-0.0087890000000001
216.6,-0.007803
216.80000000000007,-0.0076850000000001
217.0,-0.0090750000000001
217.20000000000005,-0.0086060000000001
217.4,-0.0084510000000002
217.6,-0.008116
217.80000000000007,-0.0078770000000001
218.0,-0.0057980000000001
218.20000000000005,-0.005298
218.4,-0.005284
218.6,-0.006718
218.80000000000007,-0.0093290000000001
219.0,-0.0128750000000001
219.20000000000005,-0.015535
219.4,-0.015538
219.6,-0.0133700000000001
219.80000000000007,-0.0102440000000001
220.0,-0.0067330000000001
220.20000000000005,-0.0044410000000001
220.4,-0.006172
220.6,-0.0079870000000001
220.80000000000007,-0.0091320000000001
221.0,-0.0100230000000001
221.20000000000005,-0.0103509999999999
221.4,-0.008615
221.6,-0.00695
221.80000000000007,-0.005195
222.0,-0.003811
222.20000000000005,-0.001978
222.4,-0.0020760000000001
222.6,-0.004844
222.80000000000007,-0.0064080000000001
223.0,-0.0080090000000001
223.20000000000005,-0.0101520000000001
223.4,-0.0110730000000001
223.6,-0.010521
223.80000000000007,-0.0104090000000001
224.0,-0.01007
224.20000000000005,-0.010715
224.4,-0.010091
224.6,-0.0085840000000001
224.80000000000007,-0.006931
225.0,-0.005498
225.20000000000005,-0.0024380000000001
225.4,0.0001689999999998
225.6,0.0003459999999999
225.80000000000007,-0.0015880000000001
226.0,-0.0045110000000001
226.20000000000005,-0.0071500000000002
226.4,-0.0087270000000001
226.6,-0.0110430000000001
226.80000000000007,-0.0111720000000001
227.0,-0.0112230000000002
227.20000000000005,-0.0114009999999999
227.4,-0.012396
227.6,-0.00892
227.80000000000007,-0.0084110000000001
228.0,-0.009157
228.20000000000005,-0.009319
228.4,-0.0105129999999999
228.6,-0.013519
228.80000000000007,-0.0145620000000001
229.0,-0.013349
229.20000000000005,-0.012637
229.4,-0.0104859999999999
229.6,-0.0111560000000001
229.80000000000007,-0.0134120000000002
230.0,-0.013716
230.20000000000005,-0.012817
230.4,-0.0110530000000002
230.6,-0.0077990000000001
230.80000000000007,-0.003824
231.0,-0.002472
231.20000000000005,-0.0024939999999999
231.4,-0.0063280000000001
231.6,-0.009508
231.80000000000007,-0.0112929999999999
232.0,-0.0100170000000001
232.20000000000005,-0.0089510000000001
232.4,-0.0073
232.6,-0.005962
232.80000000000007,-0.004717
233.0,-0.0059010000000001
233.20000000000005,-0.0065400000000002
233.4,-0.00669
233.6,-0.0042620000000002
233.80000000000007,-0.0034100000000001
234.0,-0.003862
234.20000000000005,-0.0063010000000001
234.4,-0.0069780000000001
234.6,-0.008825
234.80000000000007,-0.0088370000000002
235.0,-0.0074200000000002
235.20000000000005,-0.004434
235.4,-0.0039300000000002
235.6,-0.004099
235.80000000000007,-0.005767
236.0,-0.0063890000000002
236.20000000000005,-0.0078280000000001
236.4,-0.008507
236.6,-0.0104780000000002
236.80000000000007,-0.0118740000000001
237.0,-0.013435
237.20000000000005,-0.0140220000000002
237.4,-0.012653
237.6,-0.0106829999999999
237.80000000000007,-0.007238
238.0,-0.0042900000000001
238.20000000000005,-0.002483
238.4,-0.003419
238.6,-0.0034590000000001
238.80000000000007,-0.0045730000000001
239.0,-0.0054260000000001
239.20000000000005,-0.0060790000000001
239.4,-0.0061040000000001
239.6,-0.0063650000000001
239.80000000000007,-0.0056869999999999
240.0,-0.005017
240.20000000000005,-0.004043
240.4,-0.00346
240.6,-0.003989
240.80000000000007,-0.005927
241.0,-0.0092160000000001
241.20000000000005,-0.010502
241.4,-0.009508
241.6,-0.0075640000000001
241.80000000000007,-0.005784
242.0,-0.0030530000000001
242.20000000000005,-0.000955
242.4,-0.0003060000000001
242.6,-0.002564
242.80000000000007,-0.005668
243.0,-0.007816
243.20000000000005,-0.009217
243.4,-0.010008
243.6,-0.0087080000000001
243.80000000000007,-0.0062390000000001
244.0,-0.004013
244.20000000000005,-0.002977
244.4,-0.0035720000000001
244.6,-0.0031540000000001
244.80000000000007,-0.002169
245.0,-0.001727
245.20000000000005,-0.0021540000000002
245.4,-0.0017040000000001
245.6,-0.001595
245.80000000000007,-0.002501
246.0,-0.00255
246.20000000000005,-0.0034550000000002
246.4,-0.0043890000000001
246.6,-0.0062620000000002
246.80000000000007,-0.0089510000000001
247.0,-0.011913
247.20000000000005,-0.013346
247.4,-0.012377
247.6,-0.0101650000000002
247.80000000000007,-0.0067080000000001
248.0,-0.0044250000000001
248.20000000000005,-0.00313
248.4,-0.004715
248.6,-0.0059850000000001
248.80000000000007,-0.0061060000000001
249.0,-0.005597
249.20000000000005,-0.004987
249.4,-0.0031890000000001
249.6,-0.0020660000000001
249.80000000000007,-0.001754
250.0,-0.00326
250.20000000000005,-0.003532
250.4,-0.004885
250.6,-0.0065520000000001
250.80000000000007,-0.0088460000000001
251.0,-0.0089940000000001
251.20000000000005,-0.0090959999999999
251.4,-0.008501
251.6,-0.008224
251.80000000000007,-0.0076880000000001
252.0,-0.0073990000000001
252.20000000000005,-0.007983
252.4,-0.0109180000000002
252.6,-0.013371
252.80000000000007,-0.013991
253.0,-0.01286
253.20000000000005,-0.01282
253.4,-0.0101950000000001
253.6,-0.006879
253.80000000000007,-0.0051350000000001
254.0,-0.006153
254.20000000000005,-0.006434
254.4,-0.007354
254.6,-0.0074800000000001
254.80000000000007,-0.0083440000000001
255.0,-0.0077059999999999
255.20000000000005,-0.0069270000000001
255.4,-0.007921
255.6,-0.009508
255.80000000000007,-0.0108160000000001
256.0,-0.0117200000000001
256.20000000000005,-0.011565
256.4,-0.0070149999999999
256.6,-0.00224
256.80000000000007,0.0002059999999999
257.0,-0.0001889999999999
257.20000000000005,-0.001203
257.4,-0.002623
257.6,-0.004844
257.80000000000007,-0.0058960000000001
258.0,-0.0049210000000001
258.20000000000005,-0.005281
258.4,-0.0078790000000001
258.6,-0.008542
258.80000000000007,-0.0081490000000001
259.0,-0.0088890000000001
259.20000000000005,-0.006949
259.4,-0.003562
259.6,-0.001322
259.80000000000007,-0.0003239999999999
260.0,9.299999999989872e-05
260.20000000000005,-0.002445
260.4,-0.004048
260.6,-0.006996
260.80000000000007,-0.0091050000000001
261.0,-0.010491
261.20000000000005,-0.0082380000000001
261.4,-0.006968
261.6,-0.0053
261.80000000000007,-0.004685
262.0,-0.004518
262.20000000000005,-0.006561
262.4,-0.0089110000000001
262.6,-0.0108410000000001
262.80000000000007,-0.010375
263.0,-0.0101580000000001
263.20000000000005,-0.010342
263.4,-0.011559
263.6,-0.012126
263.80000000000007,-0.013686
264.0,-0.015735
264.20000000000005,-0.0163390000000001
264.4,-0.0157040000000001
264.6,-0.0147870000000001
264.80000000000007,-0.012788
265.0,-0.009651
265.20000000000005,-0.00947
265.4,-0.0082790000000001
265.6,-0.007692
265.80000000000007,-0.00791
266.0,-0.0093930000000002
266.20000000000005,-0.008358
266.4,-0.0090050000000001
266.6,-0.0101820000000001
266.80000000000007,-0.0123200000000001
267.0,-0.0133480000000001
267.20000000000005,-0.0124760000000001
267.4,-0.0109560000000001
267.6,-0.009792
267.80000000000007,-0.010383
268.0,-0.0099690000000001
268.20000000000005,-0.010866
268.4,-0.0130350000000001
268.6,-0.014583
268.80000000000007,-0.0133180000000001
269.0,-0.0127560000000002
269.20000000000005,-0.014132
269.4,-0.015236
269.6,-0.016423
269.80000000000007,-0.015527
270.0,-0.0144200000000001
270.20000000000005,-0.012275
270.4,-0.010698
270.6,-0.0083470000000001
270.80000000000007,-0.0079790000000001
271.0,-0.0069380000000001
271.20000000000005,-0.006912
271.4,-0.0063300000000001
271.6,-0.0082490000000001
271.80000000000007,-0.0111370000000001
272.0,-0.0127620000000001
272.20000000000005,-0.013973
272.4,-0.0135020000000001
272.6,-0.013789
272.80000000000007,-0.0131530000000001
273.0,-0.0148300000000001
273.20000000000005,-0.015643
273.4,-0.0158600000000002
273.6,-0.015047
273.80000000000007,-0.013076
274.0,-0.012698
274.20000000000005,-0.01197
274.4,-0.0124630000000001
274.6,-0.009732
274.80000000000007,-0.0088350000000001
275.0,-0.0053370000000001
275.20000000000005,-0.002733
275.4,-0.001989
275.6,-0.0040230000000001
275.80000000000007,-0.0052580000000002
276.0,-0.0078280000000001
276.20000000000005,-0.0093100000000001
276.4,-0.0093450000000001
276.6,-0.006067
276.80000000000007,-0.005457
277.0,-0.0039900000000001
277.20000000000005,-0.004529
277.4,-0.0051560000000001
277.6,-0.0087620000000001
277.80000000000007,-0.0091260000000001
278.0,-0.0102740000000001
278.20000000000005,-0.0099950000000001
278.4,-0.0119790000000001
278.6,-0.0124220000000001
278.80000000000007,-0.0124300000000001
279.0,-0.0128590000000001
279.20000000000005,-0.0135470000000001
279.4,-0.0116789999999999
279.6,-0.0109750000000001
279.80000000000007,-0.0125060000000001
280.0,-0.0142980000000001
280.20000000000005,-0.015894
280.4,-0.0165860000000002
280.6,-0.0168540000000001
280.80000000000007,-0.015849
281.0,-0.0120490000000001
281.20000000000005,-0.0072130000000001
281.4,-0.0037440000000001
281.6,-0.001395
281.80000000000007,-0.0002570000000001
282.0,-0.001838
282.20000000000005,-0.0047940000000001
282.4,-0.009255
282.6,-0.0135610000000001
282.80000000000007,-0.017411
283.0,-0.0194910000000001
283.20000000000005,-0.0199960000000001
283.4,-0.019211
283.6,-0.016105
283.80000000000007,-0.011924
284.0,-0.0094470000000002
284.20000000000005,-0.009832
284.4,-0.0086430000000001
284.6,-0.0089860000000001
284.80000000000007,-0.0104760000000001
285.0,-0.011473
285.20000000000005,-0.0107050000000001
285.4,-0.011279
285.6,-0.010931
285.80000000000007,-0.010796
286.0,-0.0111020000000001
286.20000000000005,-0.012199
286.4,-0.014183
286.6,-0.0172020000000001
286.80000000000007,-0.018261
287.0,-0.016677
287.20000000000005,-0.013427
287.4,-0.008958
287.6,-0.0038580000000001
287.80000000000007,-0.00207
288.0,-0.0033770000000001
288.20000000000005,-0.006037
288.4,-0.0078960000000001
288.6,-0.009827
288.80000000000007,-0.009352
289.0,-0.008604
289.20000000000005,-0.0075930000000001
289.4,-0.0071620000000001
289.6,-0.008798
289.80000000000007,-0.0109540000000001
290.0,-0.0127080000000001
290.20000000000005,-0.013789
290.4,-0.0166840000000001
290.6,-0.0187940000000002
290.80000000000007,-0.0191730000000001
291.0,-0.018121
291.20000000000005,-0.016771
291.4,-0.013152
291.6,-0.007975
291.80000000000007,-0.006048
292.0,-0.0060950000000001
292.20000000000005,-0.0086670000000002
292.4,-0.011352
292.6,-0.01364
292.80000000000007,-0.0121550000000001
293.0,-0.010601
293.20000000000005,-0.0082520000000001
293.4,-0.006574
293.6,-0.005098
293.80000000000007,-0.0057100000000001
294.0,-0.004418
294.20000000000005,-0.004518
294.4,-0.0049910000000001
294.6,-0.0074740000000002
294.80000000000007,-0.008599
295.0,-0.0114480000000001
295.20000000000005,-0.0106760000000001
295.4,-0.00991
295.6,-0.0082730000000001
295.80000000000007,-0.008715
296.0,-0.0069860000000001
296.20000000000005,-0.008893
296.4,-0.0114770000000001
296.6,-0.01421
296.80000000000007,-0.015516
297.0,-0.0174770000000001
297.20000000000005,-0.015992
297.4,-0.0125270000000001
297.6,-0.008337
297.79999999999995,-0.006806
298.0,-0.0078660000000001
298.19999999999993,-0.007864
298.4,-0.0099630000000001
298.6,-0.012024
298.79999999999995,-0.0136370000000001
299.0,-0.014216
299.19999999999993,-0.016582
299.4,-0.0160649999999999
299.6,-0.012941
299.79999999999995,-0.010302
300.0,-0.007773
300.19999999999993,-0.0065440000000001
300.4,-0.006083
300.6,-0.009638
300.79999999999995,-0.012307
301.0,-0.0158550000000001
301.19999999999993,-0.0164159999999999
301.4,-0.0154320000000001
301.6,-0.0145300000000001
301.79999999999995,-0.015541
302.0,-0.0160489999999999
302.19999999999993,-0.015473
302.4,-0.0153579999999999
302.6,-0.013864
302.79999999999995,-0.0123820000000001
303.0,-0.010995
303.19999999999993,-0.011468
303.4,-0.0130110000000001
303.6,-0.0143159999999999
303.79999999999995,-0.0146110000000001
304.0,-0.0124319999999999
304.19999999999993,-0.009492
304.4,-0.0072430000000001
304.6,-0.0070080000000001
304.79999999999995,-0.0075979999999999
305.0,-0.010337
305.19999999999993,-0.0136020000000001
305.4,-0.0156990000000001
305.6,-0.015306
305.79999999999995,-0.0160010000000001
306.0,-0.015902
306.19999999999993,-0.016542
306.4,-0.0164250000000001
306.6,-0.014553
306.79999999999995,-0.012256
307.0,-0.0118820000000001
307.19999999999993,-0.0116629999999999
307.4,-0.0129110000000001
307.6,-0.016305
307.79999999999995,-0.01635
308.0,-0.0157
308.19999999999993,-0.012885
308.4,-0.0108540000000001
308.6,-0.0096420000000001
308.79999999999995,-0.010121
309.0,-0.0094469999999999
309.19999999999993,-0.0088209999999999
309.4,-0.007524
309.6,-0.005058
309.79999999999995,-0.004593
310.0,-0.004701
310.19999999999993,-0.006272
310.4,-0.0078169999999999
310.6,-0.010175
310.79999999999995,-0.0119580000000001
311.0,-0.0131050000000001
311.19999999999993,-0.0151210000000001
311.4,-0.0162090000000001
311.6,-0.016385
311.79999999999995,-0.0157150000000001
312.0,-0.014828
312.19999999999993,-0.0119869999999999
312.4,-0.01096
312.6,-0.0100980000000001
312.79999999999995,-0.0094960000000001
313.0,-0.009889
313.19999999999993,-0.0109700000000001
313.4,-0.0104090000000001
313.6,-0.0101310000000001
313.79999999999995,-0.0101120000000001
314.0,-0.009514
314.19999999999993,-0.0075469999999999
314.4,-0.005641
314.6,-0.0056100000000001
314.79999999999995,-0.006259
315.0,-0.006817
315.19999999999993,-0.00801
315.4,-0.009686
315.6,-0.008885
315.79999999999995,-0.0068730000000001
316.0,-0.005319
316.19999999999993,-0.004485
316.4,-0.003273
316.6,-0.0033849999999999
316.79999999999995,-0.0038070000000001
317.0,-0.0037139999999999
317.19999999999993,-0.0038949999999999
317.4,-0.0051849999999999
317.6,-0.006655
317.79999999999995,-0.0073849999999999
318.0,-0.0068939999999999
318.19999999999993,-0.0056469999999999
318.4,-0.003964
318.6,-0.0023459999999999
318.79999999999995,-0.000669
319.0,-0.001014
319.19999999999993,-0.004075
319.4,-0.006124
319.6,-0.0092670000000001
319.79999999999995,-0.011031
320.0,-0.0130940000000001
320.19999999999993,-0.012431
320.4,-0.0121759999999999
320.6,-0.010817
320.79999999999995,-0.0104459999999999
321.0,-0.009381
321.19999999999993,-0.008871
321.4,-0.0079660000000001
321.6,-0.0078
321.79999999999995,-0.007748
322.0,-0.0088050000000001
322.19999999999993,-0.007349
322.4,-0.00628
322.6,-0.0030540000000001
322.79999999999995,-0.003206
323.0,-0.002294
323.19999999999993,-0.004
323.4,-0.0057530000000001
323.6,-0.008218
323.79999999999995,-0.0081140000000001
324.0,-0.0052990000000001
324.19999999999993,-0.001872
324.4,-0.001619
324.6,-0.004528
324.79999999999995,-0.00713
325.0,-0.0101680000000001
325.19999999999993,-0.013362
325.4,-0.015122
325.6,-0.0137869999999999
325.79999999999995,-0.012645
326.0,-0.0132039999999999
326.19999999999993,-0.0135180000000001
326.4,-0.0103809999999999
326.6,-0.006914
326.79999999999995,-0.004941
327.0,-0.005182
327.19999999999993,-0.0048860000000001
327.4,-0.0065680000000001
327.6,-0.009301
327.79999999999995,-0.0107600000000001
328.0,-0.0097470000000001
328.19999999999993,-0.0100850000000001
328.4,-0.010502
328.6,-0.0098150000000001
328.79999999999995,-0.0097549999999999
329.0,-0.009409
329.19999999999993,-0.008812
329.4,-0.008734
329.6,-0.0092860000000001
329.79999999999995,-0.0089300000000001
330.0,-0.0095750000000001
330.19999999999993,-0.011686
330.4,-0.012877
330.6,-0.0125779999999999
330.79999999999995,-0.012507
331.0,-0.01347
331.19999999999993,-0.013314
331.4,-0.0128970000000001
331.6,-0.013066
331.79999999999995,-0.0124239999999999
332.0,-0.0117290000000001
332.19999999999993,-0.010205
332.4,-0.009686
332.6,-0.0090650000000001
332.79999999999995,-0.009894
333.0,-0.009492
333.19999999999993,-0.0080219999999999
333.4,-0.005058
333.6,-0.003873
333.79999999999995,-0.0036739999999999
334.0,-0.0041569999999999
334.19999999999993,-0.005935
334.4,-0.007951
334.6,-0.008888
334.79999999999995,-0.008075
335.0,-0.008161
335.19999999999993,-0.0083699999999999
335.4,-0.010304
335.6,-0.0123170000000001
335.79999999999995,-0.0129300000000001
336.0,-0.0127700000000001
336.19999999999993,-0.0103140000000001
336.4,-0.008466
336.6,-0.0063969999999999
336.79999999999995,-0.0082120000000001
337.0,-0.008731
337.19999999999993,-0.0111910000000001
337.4,-0.012153
337.6,-0.0117009999999999
337.79999999999995,-0.0089840000000001
338.0,-0.006717
338.19999999999993,-0.0054100000000001
338.4,-0.0063079999999999
338.6,-0.010842
338.79999999999995,-0.0154830000000001
339.0,-0.018091
339.19999999999993,-0.018224
339.4,-0.015929
339.6,-0.013778
339.79999999999995,-0.0129190000000001
340.0,-0.0133180000000001
340.19999999999993,-0.015417
340.4,-0.0187570000000001
340.6,-0.01905
340.79999999999995,-0.015929
341.0,-0.0138420000000001
341.19999999999993,-0.012512
341.4,-0.0114340000000001
341.6,-0.0126250000000001
341.79999999999995,-0.01336
342.0,-0.0132879999999999
342.19999999999993,-0.0108220000000001
342.4,-0.007816
342.6,-0.004555
342.79999999999995,-0.006005
343.0,-0.008412
343.19999999999993,-0.012785
343.4,-0.015133
343.6,-0.015859
343.79999999999995,-0.014364
344.0,-0.014391
344.19999999999993,-0.014931
344.4,-0.0163330000000001
344.6,-0.0180390000000001
344.79999999999995,-0.019214
345.0,-0.017776
345.19999999999993,-0.0147909999999999
345.4,-0.0133180000000001
345.6,-0.009921
345.79999999999995,-0.0069050000000001
346.0,-0.0056910000000001
346.19999999999993,-0.0075009999999999
346.4,-0.0072530000000001
346.6,-0.007937
346.79999999999995,-0.0093530000000001
347.0,-0.0105810000000001
347.19999999999993,-0.0093970000000001
347.4,-0.010277
347.6,-0.0116420000000001
347.79999999999995,-0.0115940000000001
348.0,-0.0122040000000001
348.19999999999993,-0.012218
348.4,-0.010407
348.6,-0.0086220000000001
348.79999999999995,-0.008644
349.0,-0.007381
349.19999999999993,-0.007077
349.4,-0.0076500000000001
349.6,-0.0097059999999999
349.79999999999995,-0.00926
350.0,-0.00912
350.19999999999993,-0.008858
350.4,-0.0105190000000001
350.6,-0.009632
350.79999999999995,-0.011686
351.0,-0.0121679999999999
351.19999999999993,-0.0135020000000001
351.4,-0.0126429999999999
351.6,-0.0137519999999999
351.79999999999995,-0.0118979999999999
352.0,-0.010788
352.19999999999993,-0.007894
352.4,-0.0065159999999999
352.6,-0.006467
352.79999999999995,-0.0083300000000001
353.0,-0.0099120000000001
353.19999999999993,-0.012331
353.4,-0.013849
353.6,-0.01435
353.79999999999995,-0.013878
354.0,-0.0139299999999999
354.19999999999993,-0.0123740000000001
354.4,-0.0099530000000001
354.6,-0.006753
354.79999999999995,-0.00364
355.0,-0.0025410000000001
355.19999999999993,-0.00512
355.4,-0.009821
355.6,-0.012345
355.79999999999995,-0.0152339999999999
356.0,-0.016936
356.19999999999993,-0.016386
356.4,-0.013619
356.6,-0.013983
356.79999999999995,-0.014137
357.0,-0.014402
357.19999999999993,-0.0139470000000001
357.4,-0.013384
357.6,-0.0122889999999999
357.79999999999995,-0.010855
358.0,-0.0090069999999999
358.19999999999993,-0.0075850000000001
358.4,-0.0078169999999999
358.6,-0.007843
358.79999999999995,-0.00784
359.0,-0.008841
359.19999999999993,-0.0113560000000001
359.4,-0.0122269999999999
359.6,-0.0120420000000001
359.79999999999995,-0.012056
360.0,-0.011665
360.19999999999993,-0.010942
360.4,-0.0110320000000001
360.6,-0.012029
360.8,-0.011889
361.0,-0.0113180000000001
361.19999999999993,-0.0106749999999999
361.4,-0.0105870000000001
361.6,-0.010642
361.8,-0.0111320000000001
362.0,-0.010526
362.19999999999993,-0.011765
362.4,-0.0136290000000001
362.6,-0.014925
362.8,-0.0180580000000001
363.0,-0.0220740000000001
363.19999999999993,-0.023625
363.4,-0.0218720000000001
363.6,-0.0192240000000001
363.8,-0.0150730000000001
364.0,-0.011031
364.19999999999993,-0.0081770000000001
364.4,-0.0079420000000001
364.6,-0.009605
364.8,-0.0114860000000001
365.0,-0.0151080000000001
365.19999999999993,-0.0167140000000001
365.4,-0.0165980000000001
365.6,-0.0141759999999999
365.8,-0.0128479999999999
366.0,-0.0102999999999999
366.19999999999993,-0.008278
366.4,-0.007446
366.6,-0.008075
366.8,-0.009735
367.0,-0.011139
367.19999999999993,-0.0127859999999999
367.4,-0.0142569999999999
367.6,-0.0156089999999999
367.8,-0.0155629999999999
368.0,-0.0155199999999999
368.19999999999993,-0.015975
368.4,-0.0154530000000001
368.6,-0.014874
368.8,-0.0144600000000001
369.0,-0.0147399999999999
369.19999999999993,-0.0144550000000001
369.4,-0.0157390000000001
369.6,-0.0189829999999999
369.8,-0.0220360000000001
370.0,-0.023676
370.19999999999993,-0.023773
370.4,-0.0230350000000001
370.6,-0.0217960000000001
370.8,-0.0193780000000001
371.0,-0.0181710000000001
371.19999999999993,-0.0183170000000001
371.4,-0.0181029999999999
371.6,-0.0175629999999999
371.8,-0.0186330000000001
372.0,-0.0180949999999999
372.19999999999993,-0.016612
372.4,-0.014501
372.6,-0.0123010000000001
372.8,-0.009938
373.0,-0.007978
373.19999999999993,-0.0076979999999999
373.4,-0.009138
373.6,-0.011149
373.8,-0.012736
374.0,-0.013905
374.19999999999993,-0.0135720000000001
374.4,-0.0143010000000001
374.6,-0.01285
374.8,-0.0119820000000001
375.0,-0.011341
375.19999999999993,-0.0120059999999999
375.4,-0.011427
375.6,-0.0131769999999999
375.8,-0.015452
376.0,-0.017203
376.19999999999993,-0.018798
376.4,-0.0178310000000001
376.6,-0.0156260000000001
376.8,-0.012167
377.0,-0.0100710000000001
377.19999999999993,-0.008353
377.4,-0.0091689999999999
377.6,-0.0095180000000001
377.8,-0.008869
378.0,-0.0083649999999999
378.19999999999993,-0.010423
378.4,-0.0116279999999999
378.6,-0.0138629999999999
378.8,-0.016777
379.0,-0.0200740000000001
379.19999999999993,-0.0202360000000001
379.4,-0.0203220000000001
379.6,-0.0197640000000001
379.8,-0.019514
380.0,-0.0196230000000001
380.19999999999993,-0.019185
380.4,-0.0184740000000001
380.6,-0.0174579999999999
380.8,-0.018037
381.0,-0.0170449999999999
381.19999999999993,-0.015924
381.4,-0.0159979999999999
381.6,-0.017646
381.8,-0.0179869999999999
382.0,-0.0183140000000001
382.19999999999993,-0.020388
382.4,-0.021981
382.6,-0.022188
382.8,-0.021533
383.0,-0.0220820000000001
383.19999999999993,-0.0205680000000001
383.4,-0.018885
383.6,-0.0152910000000001
383.8,-0.0130609999999999
384.0,-0.0090000000000001
384.19999999999993,-0.007781
384.4,-0.008429
384.6,-0.011848
384.8,-0.014032
385.0,-0.0162520000000001
385.19999999999993,-0.0171860000000001
385.4,-0.0164429999999999
385.6,-0.0159200000000001
385.8,-0.0163950000000001
386.0,-0.017128
386.19999999999993,-0.018405
386.4,-0.018758
386.6,-0.017552
386.8,-0.0159489999999999
387.0,-0.0155579999999999
387.19999999999993,-0.014072
387.4,-0.0139219999999999
387.6,-0.015033
387.8,-0.0168430000000001
388.0,-0.0173800000000001
388.19999999999993,-0.017438
388.4,-0.0162010000000001
388.6,-0.0130110000000001
388.8,-0.0112959999999999
389.0,-0.0110270000000001
389.19999999999993,-0.0118070000000001
389.4,-0.0142539999999999
389.6,-0.0177990000000001
389.8,-0.017392
390.0,-0.0164410000000001
390.19999999999993,-0.0159850000000001
390.4,-0.0149270000000001
390.6,-0.0130259999999999
390.8,-0.013295
391.0,-0.0149190000000001
391.19999999999993,-0.016961
391.4,-0.0177169999999999
391.6,-0.0178470000000001
391.8,-0.0184300000000001
392.0,-0.0188680000000001
392.19999999999993,-0.0186159999999999
392.4,-0.017322
392.6,-0.0180679999999999
392.8,-0.0178960000000001
393.0,-0.016871
393.19999999999993,-0.0156880000000001
393.4,-0.0175070000000001
393.6,-0.018286
393.8,-0.0202189999999999
394.0,-0.0205280000000001
394.19999999999993,-0.0197739999999999
394.4,-0.018045
394.6,-0.0153940000000001
394.8,-0.0129510000000001
395.0,-0.012156
395.19999999999993,-0.013822
395.4,-0.0145980000000001
395.6,-0.0162919999999999
395.8,-0.0172890000000001
396.0,-0.018988
396.19999999999993,-0.019357
396.4,-0.020289
396.6,-0.02065
396.8,-0.020469
397.0,-0.019015
397.19999999999993,-0.017789
397.4,-0.0166810000000001
397.6,-0.017355
397.8,-0.018467
398.0,-0.0197260000000001
398.19999999999993,-0.019247
398.4,-0.017768
398.6,-0.0156009999999999
398.8,-0.0136720000000001
399.0,-0.0127049999999999
399.19999999999993,-0.0129829999999999
399.4,-0.014296
399.6,-0.0139930000000001
399.8,-0.011322
400.0,-0.0080649999999999
400.19999999999993,-0.00343
400.4,-0.001146
400.6,-0.0007209999999999
400.8,-0.0025479999999999
401.0,-0.0049750000000001
401.19999999999993,-0.0091890000000001
401.4,-0.013635
401.6,-0.0165509999999999
401.8,-0.019201
402.0,-0.0203269999999999
402.19999999999993,-0.021563
402.4,-0.0187380000000001
402.6,-0.018934
402.8,-0.0175119999999999
403.0,-0.0174450000000001
403.19999999999993,-0.016299
403.4,-0.0174240000000001
403.6,-0.017422
403.8,-0.017892
404.0,-0.018234
404.19999999999993,-0.0180880000000001
404.4,-0.0182310000000001
404.6,-0.018154
404.8,-0.0178740000000001
405.0,-0.0167190000000001
405.19999999999993,-0.0179880000000001
405.4,-0.0173579999999999
405.6,-0.0161850000000001
405.8,-0.0152890000000001
406.0,-0.0140409999999999
406.19999999999993,-0.011946
406.4,-0.0110529999999999
406.6,-0.0113769999999999
406.8,-0.0124030000000001
407.0,-0.014402
407.19999999999993,-0.014186
407.4,-0.0140409999999999
407.6,-0.012726
407.8,-0.0134480000000001
408.0,-0.0136420000000001
408.19999999999993,-0.0172830000000001
408.4,-0.020083
408.6,-0.021114
408.8,-0.0205460000000001
409.0,-0.0195530000000001
409.19999999999993,-0.0167779999999999
409.4,-0.014912
409.6,-0.015822
409.8,-0.015676
410.0,-0.014896
410.19999999999993,-0.0132130000000001
410.4,-0.011986
410.6,-0.0125270000000001
410.8,-0.013945
411.0,-0.015916
411.19999999999993,-0.017238
411.4,-0.017646
411.6,-0.0163550000000001
411.8,-0.015468
412.0,-0.01512
412.19999999999993,-0.0161980000000001
412.4,-0.018475
412.6,-0.0204980000000001
412.8,-0.0214430000000001
413.0,-0.0215690000000001
413.19999999999993,-0.0226699999999999
413.4,-0.021892
413.6,-0.019301
413.8,-0.018072
414.0,-0.017411
414.19999999999993,-0.016437
414.4,-0.015781
414.6,-0.015551
414.8,-0.0127870000000001
415.0,-0.0107730000000001
415.19999999999993,-0.010046
415.4,-0.0099329999999999
415.6,-0.0116020000000001
415.8,-0.0147430000000001
416.0,-0.0193659999999999
416.19999999999993,-0.022523
416.4,-0.025052
416.6,-0.0252400000000001
416.8,-0.026011
417.0,-0.0242090000000001
417.19999999999993,-0.023293
417.4,-0.0220610000000001
417.6,-0.022237
417.8,-0.0190510000000001
418.0,-0.016062
418.19999999999993,-0.0136469999999999
418.4,-0.014304
418.6,-0.013255
418.8,-0.016113
419.0,-0.0201960000000001
419.19999999999993,-0.021592
419.4,-0.0220329999999999
419.6,-0.022243
419.8,-0.0206920000000001
420.0,-0.0180580000000001
420.19999999999993,-0.0176340000000001
420.4,-0.0173689999999999
420.6,-0.0179390000000001
420.8,-0.0188410000000001
421.0,-0.019614
421.19999999999993,-0.018461
421.4,-0.0162360000000001
421.6,-0.0170270000000001
421.8,-0.017576
422.0,-0.018636
422.19999999999993,-0.019036
422.4,-0.019808
422.6,-0.017587
422.8,-0.0164490000000001
423.0,-0.016995
423.19999999999993,-0.019679
423.4,-0.0230730000000001
423.6,-0.02587
423.8,-0.027573
424.0,-0.0264889999999999
424.19999999999993,-0.024429
424.4,-0.0218549999999999
424.6,-0.0203040000000001
424.8,-0.0183710000000001
425.0,-0.01797
425.19999999999993,-0.016467
425.4,-0.0159610000000001
425.6,-0.0170840000000001
425.8,-0.0196150000000001
426.0,-0.0204159999999999
426.19999999999993,-0.02149
426.4,-0.0214100000000001
426.6,-0.020218
426.8,-0.019036
427.0,-0.0190460000000001
427.19999999999993,-0.020199
427.4,-0.02044
427.6,-0.0208559999999999
427.8,-0.0219900000000001
428.0,-0.021735
428.19999999999993,-0.0219390000000001
428.4,-0.0199200000000001
428.6,-0.020159
428.8,-0.020791
429.0,-0.02323
429.19999999999993,-0.023298
429.4,-0.024879
429.6,-0.023317
429.8,-0.0198340000000001
430.0,-0.0158169999999999
430.19999999999993,-0.014853
430.4,-0.01505
430.6,-0.016458
430.8,-0.0184250000000001
431.0,-0.019568
431.19999999999993,-0.0193849999999999
431.4,-0.0197720000000001
431.6,-0.0196640000000001
431.8,-0.0184440000000001
432.0,-0.0169860000000001
432.19999999999993,-0.0168300000000001
432.4,-0.016243
432.6,-0.0149220000000001
432.8,-0.0162580000000001
433.0,-0.0189829999999999
433.19999999999993,-0.02035
433.4,-0.020958
433.6,-0.022361
433.8,-0.021419
434.0,-0.0209669999999999
434.19999999999993,-0.019767
434.4,-0.0203470000000001
434.6,-0.0195560000000001
434.8,-0.0191909999999999
435.0,-0.0173959999999999
435.19999999999993,-0.0168970000000001
435.4,-0.0158280000000001
435.6,-0.0153039999999999
435.8,-0.014313
436.0,-0.0145669999999999
436.19999999999993,-0.014491
436.4,-0.011851
436.6,-0.0098059999999999
436.8,-0.010575
437.0,-0.0118
437.19999999999993,-0.01313
437.4,-0.016682
437.6,-0.0190920000000001
437.8,-0.018906
438.0,-0.0176389999999999
438.19999999999993,-0.017144
438.4,-0.0148300000000001
438.6,-0.013533
438.8,-0.0130240000000001
439.0,-0.0141740000000001
439.19999999999993,-0.014072
439.4,-0.016423
439.6,-0.018108
439.8,-0.019937
440.0,-0.0206250000000001
440.19999999999993,-0.0212620000000001
440.4,-0.021684
440.6,-0.0229939999999999
440.8,-0.0239470000000001
441.0,-0.024672
441.19999999999993,-0.0247669999999999
441.4,-0.022847
441.6,-0.022194
441.8,-0.0213670000000001
442.0,-0.020831
442.19999999999993,-0.019368
442.4,-0.019616
442.6,-0.0172959999999999
442.8,-0.016334
443.0,-0.0146209999999999
443.19999999999993,-0.015166
443.4,-0.014785
443.6,-0.016467
443.8,-0.017114
444.0,-0.0176310000000001
444.19999999999993,-0.017436
444.4,-0.0175640000000001
444.6,-0.017039
444.8,-0.016054
445.0,-0.016094
445.19999999999993,-0.0162230000000001
445.4,-0.017643
445.6,-0.0196439999999999
445.8,-0.0211689999999999
446.0,-0.0217610000000001
446.19999999999993,-0.022612
446.4,-0.0223269999999999
446.6,-0.0219880000000001
446.8,-0.022097
447.0,-0.023249
447.19999999999993,-0.02472
447.4,-0.0275690000000001
447.6,-0.0283029999999999
447.8,-0.027922
448.0,-0.0265200000000001
448.19999999999993,-0.025247
448.4,-0.0227429999999999
448.6,-0.0212830000000001
448.8,-0.0209110000000001
449.0,-0.019767
449.19999999999993,-0.0197990000000001
449.4,-0.02035
449.6,-0.0210430000000001
449.8,-0.0232100000000001
450.0,-0.0259139999999999
450.19999999999993,-0.02559
450.4,-0.0240360000000001
450.6,-0.023811
450.8,-0.023101
451.0,-0.022332
451.19999999999993,-0.02217
451.4,-0.0233499999999999
451.6,-0.024434
451.8,-0.023824
452.0,-0.0231110000000001
452.19999999999993,-0.0234430000000001
452.4,-0.0223539999999999
452.6,-0.0206079999999999
452.8,-0.020699
453.0,-0.020807
453.19999999999993,-0.018939
453.4,-0.0195309999999999
453.6,-0.0219219999999999
453.8,-0.022485
454.0,-0.021109
454.19999999999993,-0.022553
454.4,-0.0238709999999999
454.6,-0.022785
454.8,-0.0208289999999999
455.0,-0.0218359999999999
455.19999999999993,-0.022432
455.4,-0.0205710000000001
455.6,-0.0191369999999999
455.8,-0.020621
456.0,-0.0236290000000001
456.19999999999993,-0.025225
456.4,-0.0262550000000001
456.6,-0.027187
456.8,-0.026866
457.0,-0.0246730000000001
457.19999999999993,-0.022653
457.4,-0.0213910000000001
457.6,-0.0211529999999999
457.8,-0.0210810000000001
458.0,-0.021735
458.19999999999993,-0.0228570000000001
458.4,-0.024334
458.6,-0.0245600000000001
458.8,-0.0253529999999999
459.0,-0.025487
459.19999999999993,-0.0249669999999999
459.4,-0.023948
459.6,-0.0216929999999999
459.8,-0.018116
460.0,-0.0153830000000001
460.19999999999993,-0.0145440000000001
460.4,-0.013773
460.6,-0.0158359999999999
460.8,-0.020132
461.0,-0.023034
461.19999999999993,-0.024442
461.4,-0.0254389999999999
461.6,-0.025589
461.8,-0.0236260000000001
462.0,-0.024097
462.19999999999993,-0.024075
462.4,-0.025808
462.6,-0.0279
462.8,-0.030173
463.0,-0.02923
463.19999999999993,-0.028518
463.4,-0.0270259999999999
463.6,-0.0242330000000001
463.8,-0.0221960000000001
464.0,-0.021724
464.19999999999993,-0.021757
464.4,-0.0224079999999999
464.6,-0.023549
464.8,-0.0241310000000001
465.0,-0.024046
465.19999999999993,-0.0233750000000001
465.4,-0.0216260000000001
465.6,-0.0203950000000001
465.8,-0.019273
466.0,-0.0191240000000001
466.19999999999993,-0.0191860000000001
466.4,-0.0183760000000001
466.6,-0.0173430000000001
466.8,-0.0148350000000001
467.0,-0.012717
467.19999999999993,-0.0119500000000001
467.4,-0.013193
467.6,-0.0139360000000001
467.8,-0.0148700000000001
468.0,-0.016191
468.19999999999993,-0.017608
468.4,-0.0178450000000001
468.6,-0.0176610000000001
468.8,-0.0202919999999999
469.0,-0.022283
469.19999999999993,-0.023549
469.4,-0.02454
469.6,-0.0258020000000001
469.8,-0.0239979999999999
470.0,-0.0223189999999999
470.19999999999993,-0.0190449999999999
470.4,-0.0189000000000001
470.6,-0.0191560000000001
470.8,-0.02011
471.0,-0.0201729999999999
471.19999999999993,-0.022874
471.4,-0.0221679999999999
471.6,-0.021077
471.8,-0.0221630000000001
472.0,-0.0243330000000001
472.19999999999993,-0.0239420000000001
472.4,-0.0249129999999999
472.6,-0.0262299999999999
472.8,-0.026691
473.0,-0.025922
473.19999999999993,-0.0249989999999999
473.4,-0.0237420000000001
473.6,-0.0211959999999999
473.8,-0.019711
474.0,-0.019803
474.19999999999993,-0.0217210000000001
474.4,-0.0226129999999999
474.6,-0.0242139999999999
474.8,-0.0234389999999999
475.0,-0.0233020000000001
475.19999999999993,-0.0214039999999999
475.4,-0.0184680000000001
475.6,-0.01549
475.8,-0.014717
476.0,-0.0133210000000001
476.19999999999993,-0.015311
476.4,-0.019176
476.6,-0.022793
476.8,-0.025579
477.0,-0.0274320000000001
477.19999999999993,-0.02658
477.4,-0.026005
477.6,-0.026045
477.8,-0.0263090000000001
478.0,-0.0273039999999999
478.19999999999993,-0.0289749999999999
478.4,-0.0286090000000001
478.6,-0.027848
478.8,-0.0265200000000001
479.0,-0.024493
479.19999999999993,-0.022631
479.4,-0.0230179999999999
479.6,-0.0230110000000001
479.8,-0.023266
480.0,-0.0230099999999999
480.19999999999993,-0.0230369999999999
480.4,-0.022486
480.6,-0.0226760000000001
480.8,-0.0220230000000001
481.0,-0.0193180000000001
481.19999999999993,-0.0151430000000001
481.4,-0.011287
481.6,-0.0084440000000001
481.8,-0.008761
482.0,-0.0121299999999999
482.19999999999993,-0.0169540000000001
482.4,-0.0210050000000001
482.6,-0.0243170000000001
482.8,-0.025813
483.0,-0.02705
483.19999999999993,-0.025959
483.4,-0.024488
483.6,-0.0213149999999999
483.8,-0.017149
484.0,-0.0117
484.19999999999993,-0.010035
484.4,-0.010558
484.6,-0.01326
484.8,-0.015514
485.0,-0.0189320000000001
485.19999999999993,-0.0199709999999999
485.4,-0.0202680000000001
485.6,-0.020861
485.8,-0.022318
486.0,-0.0228129999999999
486.19999999999993,-0.024124
486.4,-0.024707
486.6,-0.0231529999999999
486.8,-0.022567
487.0,-0.022439
487.19999999999993,-0.0222660000000001
487.4,-0.02211
487.6,-0.022248
487.8,-0.020744
488.0,-0.020553
488.19999999999993,-0.019638
488.4,-0.019778
488.6,-0.0216130000000001
488.8,-0.025266
489.0,-0.0267589999999999
489.19999999999993,-0.0273370000000001
489.4,-0.027017
489.6,-0.026232
489.8,-0.0254670000000001
490.0,-0.0261710000000001
490.19999999999993,-0.027292
490.4,-0.027249
490.6,-0.0280500000000001
490.8,-0.0272799999999999
491.0,-0.0264200000000001
491.19999999999993,-0.025311
491.4,-0.0254320000000001
491.6,-0.024019
491.8,-0.022907
492.0,-0.0209829999999999
492.19999999999993,-0.0204250000000001
492.4,-0.0215480000000001
492.6,-0.0228460000000001
492.8,-0.023695
493.0,-0.02513
493.19999999999993,-0.024953
493.4,-0.023643
493.6,-0.0224140000000001
493.8,-0.0218580000000001
494.0,-0.0224189999999999
494.19999999999993,-0.023624
494.4,-0.0238470000000001
494.6,-0.024542
494.8,-0.0267330000000001
495.0,-0.0268730000000001
495.19999999999993,-0.026783
495.4,-0.027393
495.6,-0.027012
495.8,-0.025398
496.0,-0.022348
496.19999999999993,-0.020024
496.4,-0.0175119999999999
496.6,-0.0177690000000001
496.8,-0.017711
497.0,-0.019379
497.19999999999993,-0.022172
497.4,-0.025322
497.6,-0.025835
497.8,-0.024064
498.0,-0.0227460000000001
498.19999999999993,-0.0218359999999999
498.4,-0.0211369999999999
498.6,-0.0205440000000001
498.8,-0.0223550000000001
499.0,-0.0229430000000001
499.19999999999993,-0.0223390000000001
499.4,-0.0215819999999999
499.6,-0.0217549999999999
499.8,-0.021096
500.0,-0.0232460000000001
500.19999999999993,-0.0255860000000001
500.4,-0.027811
500.6,-0.0283330000000001
500.8,-0.029535
501.0,-0.030216
501.19999999999993,-0.0314180000000001
501.4,-0.0319089999999999
501.6,-0.033139
501.8,-0.034345
502.0,-0.0329330000000001
502.19999999999993,-0.029738
502.4,-0.0265090000000001
502.6,-0.024494
502.8,-0.0213419999999999
503.0,-0.0196940000000001
503.19999999999993,-0.018594
503.4,-0.0181900000000001
503.6,-0.0184349999999999
503.8,-0.0205520000000001
504.0,-0.02252
504.19999999999993,-0.0250300000000001
504.4,-0.02556
504.6,-0.0251419999999999
504.8,-0.0242679999999999
505.0,-0.0237709999999999
505.19999999999993,-0.0223850000000001
505.4,-0.024227
505.6,-0.025964
505.8,-0.0260090000000001
506.0,-0.0264570000000001
506.19999999999993,-0.028793
506.4,-0.0304729999999999
506.6,-0.0326110000000001
506.8,-0.035357
507.0,-0.0370989999999999
507.19999999999993,-0.036715
507.4,-0.033212
507.6,-0.029922
507.8,-0.0275910000000001
508.0,-0.027365
508.19999999999993,-0.0273990000000001
508.4,-0.028003
508.6,-0.026488
508.8,-0.0245280000000001
509.0,-0.02122
509.19999999999993,-0.0177150000000001
509.4,-0.0167790000000001
509.6,-0.018515
509.8,-0.0214469999999999
510.00000000000006,-0.0250909999999999
510.1999999999999,-0.030207
510.3999999999999,-0.0326010000000001
510.6,-0.0325410000000001
510.8,-0.031293
511.00000000000006,-0.029047
511.1999999999999,-0.027409
511.3999999999999,-0.0277020000000001
511.6,-0.029824
511.8,-0.030559
512.0,-0.0299679999999999
512.1999999999998,-0.027001
512.3999999999999,-0.0249410000000001
512.5999999999999,-0.0209030000000001
512.8,-0.018237
513.0,-0.0178519999999999
513.1999999999998,-0.0179869999999999
513.3999999999999,-0.018612
513.5999999999999,-0.021152
513.8,-0.025306
514.0,-0.0269639999999999
514.1999999999998,-0.028307
514.3999999999999,-0.026898
514.5999999999999,-0.025814
514.8,-0.024782
515.0,-0.0254419999999999
515.1999999999998,-0.026499
515.3999999999999,-0.02851
515.5999999999999,-0.028961
515.8,-0.0279599999999999
516.0,-0.027946
516.1999999999998,-0.027951
516.3999999999999,-0.027217
516.5999999999999,-0.0270799999999999
516.8,-0.0277690000000001
517.0,-0.027252
517.1999999999998,-0.0268060000000001
517.3999999999999,-0.0268700000000001
517.5999999999999,-0.025905
517.8,-0.0232149999999999
518.0,-0.0204870000000001
518.1999999999998,-0.0184619999999999
518.3999999999999,-0.0179090000000001
518.5999999999999,-0.0179169999999999
518.8,-0.0189730000000001
519.0,-0.022272
519.1999999999998,-0.0257629999999999
519.3999999999999,-0.026969
519.5999999999999,-0.0274400000000001
519.8,-0.0281500000000001
520.0,-0.0266889999999999
520.1999999999998,-0.024685
520.3999999999999,-0.0243889999999999
520.5999999999999,-0.0243980000000001
520.8,-0.0246889999999999
521.0,-0.0237310000000001
521.1999999999998,-0.022682
521.3999999999999,-0.0218549999999999
521.5999999999999,-0.022397
521.8,-0.0236340000000001
522.0,-0.025233
522.1999999999998,-0.0254579999999999
522.3999999999999,-0.0250590000000001
522.5999999999999,-0.0255290000000001
522.8,-0.0249140000000001
523.0,-0.025708
523.1999999999998,-0.027435
523.3999999999999,-0.0276290000000001
523.5999999999999,-0.0284729999999999
523.8,-0.029894
524.0,-0.030888
524.1999999999998,-0.0305779999999999
524.3999999999999,-0.0321820000000001
524.5999999999999,-0.0317469999999999
524.8,-0.02963
525.0,-0.02709
525.1999999999998,-0.027843
525.3999999999999,-0.028709
525.5999999999999,-0.029579
525.8,-0.0294320000000001
526.0,-0.030488
526.1999999999998,-0.0300169999999999
526.3999999999999,-0.028564
526.5999999999999,-0.0253890000000001
526.8,-0.0238720000000001
527.0,-0.021444
527.1999999999998,-0.0205859999999999
527.3999999999999,-0.019568
527.5999999999999,-0.018655
527.8,-0.0192290000000001
528.0,-0.0215039999999999
528.1999999999998,-0.02275
528.3999999999999,-0.023903
528.5999999999999,-0.026699
528.8,-0.0291000000000001
529.0,-0.0294260000000001
529.1999999999998,-0.0272719999999999
529.3999999999999,-0.02621
529.5999999999999,-0.0267810000000001
529.8,-0.026931
530.0,-0.02648
530.1999999999998,-0.0278290000000001
530.3999999999999,-0.0296659999999999
530.5999999999999,-0.0297960000000001
530.8,-0.029984
531.0,-0.0306460000000001
531.1999999999998,-0.0307509999999999
531.3999999999999,-0.028588
531.5999999999999,-0.025892
531.8,-0.0220900000000001
532.0,-0.020024
532.1999999999998,-0.0171750000000001
532.3999999999999,-0.015795
532.5999999999999,-0.015025
532.8,-0.0164570000000001
533.0,-0.016386
533.1999999999998,-0.019101
533.3999999999999,-0.022493
533.5999999999999,-0.0240630000000001
533.8,-0.0225490000000001
534.0,-0.0227410000000001
534.1999999999998,-0.024267
534.3999999999999,-0.025498
534.5999999999999,-0.028815
534.8,-0.0328669999999999
535.0,-0.0357279999999999
535.1999999999998,-0.035114
535.3999999999999,-0.034925
535.5999999999999,-0.036691
535.8,-0.0393339999999999
536.0,-0.039673
536.1999999999998,-0.039628
536.3999999999999,-0.0366630000000001
536.5999999999999,-0.0320720000000001
536.8,-0.0271069999999999
537.0,-0.0228559999999999
537.1999999999998,-0.0205239999999999
537.3999999999999,-0.0213339999999999
537.5999999999999,-0.021436
537.8,-0.022067
538.0,-0.02343
538.1999999999998,-0.025349
538.3999999999999,-0.0283090000000001
538.5999999999999,-0.0300900000000001
538.8,-0.0313240000000001
539.0,-0.032864
539.1999999999998,-0.0335640000000001
539.3999999999999,-0.032674
539.5999999999999,-0.0314579999999999
539.8,-0.0300610000000001
540.0,-0.0291449999999999
540.1999999999998,-0.0296290000000001
540.3999999999999,-0.0287950000000001
540.5999999999999,-0.0286779999999999
540.8,-0.029109
541.0,-0.029034
541.1999999999998,-0.027206
541.3999999999999,-0.025141
541.5999999999999,-0.0248060000000001
541.8,-0.024704
542.0,-0.025565
542.1999999999998,-0.026418
542.3999999999999,-0.0283440000000001
542.5999999999999,-0.0295469999999999
542.8,-0.0296039999999999
543.0,-0.0283189999999999
543.1999999999998,-0.026963
543.3999999999999,-0.0260169999999999
543.5999999999999,-0.025768
543.8,-0.025689
544.0,-0.0258020000000001
544.1999999999998,-0.0257439999999999
544.3999999999999,-0.02618
544.5999999999999,-0.026175
544.8,-0.02828
545.0,-0.0295689999999999
545.1999999999998,-0.0315430000000001
545.3999999999999,-0.031568
545.5999999999999,-0.0309110000000001
545.8,-0.0297530000000001
546.0,-0.031144
546.1999999999998,-0.0313259999999999
546.3999999999999,-0.032737
546.5999999999999,-0.032243
546.8,-0.03115
547.0,-0.02742
547.1999999999998,-0.0241139999999999
547.3999999999999,-0.020874
547.5999999999999,-0.0212989999999999
547.8,-0.022939
548.0,-0.0274659999999999
548.1999999999998,-0.0306870000000001
548.3999999999999,-0.0334750000000001
548.5999999999999,-0.0345470000000001
548.8,-0.032925
549.0,-0.029376
549.1999999999998,-0.0282690000000001
549.3999999999999,-0.0264790000000001
549.5999999999999,-0.0250700000000001
549.8,-0.0230700000000001
550.0,-0.0215720000000001
550.1999999999998,-0.0189160000000001
550.3999999999999,-0.0169840000000001
550.5999999999999,-0.0162539999999999
550.8,-0.01749
551.0,-0.018872
551.1999999999998,-0.0205859999999999
551.3999999999999,-0.023268
551.5999999999999,-0.023679
551.8,-0.023185
552.0,-0.023034
552.1999999999998,-0.024529
552.3999999999999,-0.025557
552.5999999999999,-0.026532
552.8,-0.0276
553.0,-0.029371
553.1999999999998,-0.0300580000000001
553.3999999999999,-0.0304999999999999
553.5999999999999,-0.030469
553.8,-0.029452
554.0,-0.0272149999999999
554.1999999999998,-0.0259960000000001
554.3999999999999,-0.0261470000000001
554.5999999999999,-0.027339
554.8,-0.0287209999999999
555.0,-0.0287440000000001
555.1999999999998,-0.0273890000000001
555.3999999999999,-0.025255
555.5999999999999,-0.024423
555.8,-0.0240010000000001
556.0,-0.0244520000000001
556.1999999999998,-0.024596
556.3999999999999,-0.024372
556.5999999999999,-0.02363
556.8,-0.025328
557.0,-0.0275819999999999
557.1999999999998,-0.0297370000000001
557.3999999999999,-0.0309289999999999
557.5999999999999,-0.03123
557.8,-0.028952
558.0,-0.026008
558.1999999999998,-0.0234800000000001
558.3999999999999,-0.0229680000000001
558.5999999999999,-0.0221360000000001
558.8,-0.023541
559.0,-0.0258850000000001
559.1999999999998,-0.0281150000000001
559.3999999999999,-0.0291780000000001
559.5999999999999,-0.0296199999999999
559.8,-0.0289909999999999
560.0,-0.027671
560.1999999999998,-0.0280759999999999
560.3999999999999,-0.0273609999999999
560.5999999999999,-0.028496
560.8,-0.0291480000000001
561.0,-0.0299329999999999
561.1999999999998,-0.0276309999999999
561.3999999999999,-0.0262420000000001
561.5999999999999,-0.024375
561.8,-0.0242120000000001
562.0,-0.0237930000000001
562.1999999999998,-0.0255050000000001
562.3999999999999,-0.0263919999999999
562.5999999999999,-0.0274020000000001
562.8,-0.026844
563.0,-0.0285630000000001
563.1999999999998,-0.029976
563.3999999999999,-0.033627
563.5999999999999,-0.0370190000000001
563.8,-0.0380709999999999
564.0,-0.0376549999999999
564.1999999999998,-0.0349829999999999
564.3999999999999,-0.031705
564.5999999999999,-0.0291350000000001
564.8,-0.0292339999999999
565.0,-0.0287399999999999
565.1999999999998,-0.030499
565.3999999999999,-0.031314
565.5999999999999,-0.031765
565.8,-0.0320880000000001
566.0,-0.0313149999999999
566.1999999999998,-0.03003
566.3999999999999,-0.028045
566.5999999999999,-0.0274720000000001
566.8,-0.0248829999999999
567.0,-0.023884
567.1999999999998,-0.023516
567.3999999999999,-0.0238850000000001
567.5999999999999,-0.0233879999999999
567.8,-0.025006
568.0,-0.026559
568.1999999999998,-0.0285140000000001
568.3999999999999,-0.0315860000000001
568.5999999999999,-0.0333339999999999
568.8,-0.0326650000000001
569.0,-0.0319610000000001
569.1999999999998,-0.0318960000000001
569.3999999999999,-0.033555
569.5999999999999,-0.0351670000000001
569.8,-0.0381169999999999
570.0,-0.038872
570.1999999999998,-0.038273
570.3999999999999,-0.0348870000000001
570.5999999999999,-0.0318
570.8,-0.029222
571.0,-0.0282649999999999
571.1999999999998,-0.0273430000000001
571.3999999999999,-0.0286509999999999
571.5999999999999,-0.0297629999999999
571.8,-0.0298930000000001
571.9999999999998,-0.028437
572.1999999999998,-0.027681
572.3999999999999,-0.0252149999999999
572.5999999999999,-0.0251609999999999
572.8,-0.026351
572.9999999999998,-0.0287600000000001
573.1999999999998,-0.0298169999999999
573.3999999999999,-0.0309810000000001
573.5999999999999,-0.030928
573.8,-0.030537
573.9999999999998,-0.031517
574.1999999999998,-0.0326269999999999
574.3999999999999,-0.032494
574.5999999999999,-0.0317500000000001
574.8,-0.0314959999999999
574.9999999999998,-0.030953
575.1999999999998,-0.0301500000000001
575.3999999999999,-0.0296880000000001
575.5999999999999,-0.028321
575.8,-0.0275579999999999
575.9999999999998,-0.0273229999999999
576.1999999999998,-0.028491
576.3999999999999,-0.029463
576.5999999999999,-0.030375
576.8,-0.030844
576.9999999999998,-0.027973
577.1999999999998,-0.0248620000000001
577.3999999999999,-0.023754
577.5999999999999,-0.0249289999999999
577.8,-0.0273560000000001
577.9999999999998,-0.0321040000000001
578.1999999999998,-0.0359580000000001
578.3999999999999,-0.037447
578.5999999999999,-0.037255
578.8,-0.0357210000000001
578.9999999999998,-0.033657
579.1999999999998,-0.031857
579.3999999999999,-0.0301280000000001
579.5999999999999,-0.02885
579.8,-0.027841
579.9999999999998,-0.0270400000000001
580.1999999999998,-0.0274659999999999
580.3999999999999,-0.030404
580.5999999999999,-0.0326889999999999
580.8,-0.033784
580.9999999999998,-0.0356830000000001
581.1999999999998,-0.036224
581.3999999999999,-0.033911
581.5999999999999,-0.032083
581.8,-0.031312
581.9999999999998,-0.03021
582.1999999999998,-0.0263539999999999
582.3999999999999,-0.023605
582.5999999999999,-0.0204159999999999
582.8,-0.0193750000000001
582.9999999999998,-0.0183760000000001
583.1999999999998,-0.020658
583.3999999999999,-0.0224539999999999
583.5999999999999,-0.0260070000000001
583.8,-0.027787
583.9999999999998,-0.028162
584.1999999999998,-0.0273590000000001
584.3999999999999,-0.0271080000000001
584.5999999999999,-0.027544
584.8,-0.0301230000000001
584.9999999999998,-0.032442
585.1999999999998,-0.032866
585.3999999999999,-0.034056
585.5999999999999,-0.0347760000000001
585.8,-0.033379
585.9999999999998,-0.032165
586.1999999999998,-0.0348319999999999
586.3999999999999,-0.0357340000000001
586.5999999999999,-0.0338260000000001
586.8,-0.0317720000000001
586.9999999999998,-0.030099
587.1999999999998,-0.026831
587.3999999999999,-0.0254160000000001
587.5999999999999,-0.0262520000000001
587.8,-0.026864
587.9999999999998,-0.0281299999999999
588.1999999999998,-0.0302729999999999
588.3999999999999,-0.03071
588.5999999999999,-0.0301960000000001
588.8,-0.0302980000000001
588.9999999999998,-0.0305740000000001
589.1999999999998,-0.0312339999999999
589.3999999999999,-0.0318690000000001
589.5999999999999,-0.0335480000000001
589.8,-0.03438
589.9999999999998,-0.0349540000000001
590.1999999999998,-0.0331400000000001
590.3999999999999,-0.03159
590.5999999999999,-0.0285889999999999
590.8,-0.0262900000000001
590.9999999999998,-0.0241299999999999
591.1999999999998,-0.024167
591.3999999999999,-0.0246840000000001
591.5999999999999,-0.026507
591.8,-0.0271959999999999
591.9999999999998,-0.0294229999999999
592.1999999999998,-0.031149
592.3999999999999,-0.031457
592.5999999999999,-0.032648
592.8,-0.0334450000000001
592.9999999999998,-0.0327030000000001
593.1999999999998,-0.0288859999999999
593.3999999999999,-0.026782
593.5999999999999,-0.0238640000000001
593.8,-0.022307
593.9999999999998,-0.020286
594.1999999999998,-0.021471
594.3999999999999,-0.0234020000000001
594.5999999999999,-0.024877
594.8,-0.0247939999999999
594.9999999999998,-0.0251339999999999
595.1999999999998,-0.0253799999999999
595.3999999999999,-0.026413
595.5999999999999,-0.0274990000000001
595.8,-0.0296100000000001
595.9999999999998,-0.031455
596.1999999999998,-0.032418
596.3999999999999,-0.033295
596.5999999999999,-0.0330559999999999
596.8,-0.0335720000000001
596.9999999999998,-0.0345680000000001
597.1999999999998,-0.0339990000000001
