Time (s),Shift (nm)
0.0,0.0
0.1999999999999886,0.0032149999999999
0.4000000000000341,0.0049129999999999
0.6000000000000227,0.0065039999999998
0.8000000000000114,0.0087589999999999
1.0,0.0104109999999999
1.1999999999999886,0.0097699999999998
1.400000000000034,0.0084859999999999
1.6000000000000227,0.0071309999999999
1.8000000000000114,0.0060029999999999
2.0,0.0064509999999999
2.1999999999999886,0.0074619999999998
2.400000000000034,0.0102209999999998
2.6000000000000227,0.0129329999999998
2.800000000000012,0.0128629999999998
3.0,0.011476
3.1999999999999886,0.0086589999999999
3.400000000000034,0.0045459999999999
3.6000000000000227,0.0013849999999999
3.8000000000000114,0.0023379999999999
4.0,0.0042149999999998
4.199999999999989,0.0063199999999998
4.400000000000034,0.0111159999999999
4.600000000000023,0.0137990000000001
4.800000000000011,0.0113159999999998
5.0,0.0092269999999998
5.199999999999989,0.0082249999999999
5.400000000000034,0.0072239999999998
5.600000000000023,0.0069609999999999
5.800000000000011,0.00929
6.0,0.0112209999999999
6.199999999999989,0.0119489999999999
6.400000000000034,0.0103629999999999
6.600000000000023,0.0080939999999998
6.800000000000011,0.005668
7.0,0.0048309999999998
7.199999999999989,0.0055709999999999
7.400000000000034,0.0073729999999998
7.600000000000023,0.0092239999999998
7.800000000000011,0.011079
8.0,0.010502
8.199999999999989,0.0084769999999998
8.400000000000034,0.0073579999999999
8.600000000000023,0.0084259999999998
8.800000000000011,0.0090219999999998
9.0,0.008008
9.199999999999989,0.0076529999999999
9.400000000000034,0.0067269999999999
9.600000000000025,0.0070239999999999
9.800000000000011,0.0070939999999999
10.0,0.0086219999999999
10.199999999999989,0.0099499999999999
10.400000000000034,0.009436
10.600000000000025,0.0059549999999999
10.800000000000011,0.0026209999999999
11.0,0.0024709999999998
11.199999999999989,0.0020449999999998
11.400000000000034,0.004456
11.600000000000025,0.0069869999999998
11.800000000000011,0.0082139999999999
12.0,0.007722
12.199999999999989,0.0082059999999999
12.400000000000034,0.0077099999999998
12.600000000000025,0.0085939999999999
12.800000000000011,0.0116239999999998
13.0,0.0133779999999998
13.199999999999989,0.0151479999999999
13.400000000000034,0.014885
13.600000000000025,0.012639
13.800000000000011,0.0103699999999999
14.0,0.00851
14.199999999999989,0.0072699999999998
14.400000000000034,0.0069559999999999
14.600000000000025,0.0074689999999999
14.800000000000011,0.007857
15.0,0.0098819999999999
15.199999999999989,0.0104409999999999
15.400000000000034,0.0106489999999999
15.600000000000025,0.0089669999999999
15.800000000000011,0.0074699999999998
16.0,0.0053699999999998
16.19999999999999,0.0050489999999998
16.400000000000034,0.0036619999999998
16.600000000000023,0.0044849999999998
16.80000000000001,0.0041869999999999
17.0,0.0050619999999999
17.19999999999999,0.0042169999999999
17.400000000000034,0.0063869999999999
17.600000000000023,0.0073519999999998
17.80000000000001,0.0101629999999999
18.0,0.01113
18.19999999999999,0.0110429999999999
18.400000000000038,0.0083079999999999
18.600000000000023,0.0078579999999999
18.80000000000001,0.0081389999999998
19.0,0.0092439999999998
19.19999999999999,0.0116079999999998
19.400000000000038,0.0156879999999999
19.600000000000023,0.017363
19.80000000000001,0.0166889999999999
20.0,0.0142699999999997
20.19999999999999,0.014672
20.400000000000038,0.0158909999999998
20.600000000000023,0.019219
20.80000000000001,0.0206279999999998
21.0,0.0222269999999999
21.19999999999999,0.0187870000000001
21.400000000000038,0.0150669999999997
21.600000000000023,0.0099989999999998
21.80000000000001,0.0094069999999999
22.0,0.0107300000000001
22.19999999999999,0.015327
22.400000000000038,0.0167559999999999
22.600000000000023,0.0185539999999999
22.80000000000001,0.0164019999999998
23.0,0.012693
23.19999999999999,0.008502
23.400000000000038,0.0074349999999998
23.600000000000023,0.0065039999999998
23.80000000000001,0.0089529999999999
24.0,0.0120139999999997
24.19999999999999,0.0145589999999997
24.400000000000038,0.0158249999999999
24.600000000000023,0.0163899999999999
24.80000000000001,0.014558
25.0,0.0113659999999997
25.19999999999999,0.0099779999999998
25.400000000000038,0.0091339999999999
25.600000000000023,0.0101439999999999
25.80000000000001,0.0112399999999999
26.0,0.0130089999999998
26.19999999999999,0.0138669999999998
26.400000000000038,0.0143939999999997
26.600000000000023,0.013452
26.80000000000001,0.0117979999999997
27.0,0.0103719999999998
27.19999999999999,0.0085869999999999
27.400000000000038,0.0089169999999998
27.600000000000023,0.0084269999999999
27.80000000000001,0.0090829999999999
28.0,0.0093139999999998
28.19999999999999,0.0091989999999999
28.400000000000038,0.0080689999999998
28.600000000000023,0.0082869999999999
28.80000000000001,0.0078759999999999
29.0,0.0089079999999999
29.19999999999999,0.0110609999999997
29.400000000000038,0.0119449999999998
29.600000000000023,0.0104949999999999
29.80000000000001,0.0112109999999998
30.0,0.011673
30.19999999999999,0.0111889999999998
30.400000000000038,0.0100519999999999
30.600000000000023,0.0096689999999999
30.80000000000001,0.009541
31.0,0.0086629999999998
31.19999999999999,0.0062609999999998
31.400000000000038,0.0058939999999998
31.600000000000023,0.0067009999999998
31.80000000000001,0.0053699999999998
32.0,0.005209
32.19999999999999,0.0075479999999998
32.400000000000034,0.0079519999999999
32.60000000000002,0.0082279999999999
32.80000000000001,0.0075349999999998
33.0,0.0059279999999999
33.19999999999999,0.0023269999999999
33.400000000000034,0.0020009999999999
33.60000000000002,0.0028869999999998
33.80000000000001,0.00373
34.0,0.0051259999999999
34.19999999999999,0.0072099999999999
34.400000000000034,0.0088489999999998
34.60000000000002,0.0090679999999998
34.80000000000001,0.0105149999999998
35.0,0.0088539999999999
35.19999999999999,0.0090759999999998
35.400000000000034,0.0100509999999998
35.60000000000002,0.011349
35.80000000000001,0.0115039999999999
36.0,0.0139759999999999
36.19999999999999,0.0146829999999997
36.400000000000034,0.013004
36.60000000000002,0.0099849999999999
36.80000000000001,0.009846
37.0,0.0103269999999999
37.19999999999999,0.0099
37.400000000000034,0.0077459999999998
37.60000000000002,0.0080749999999998
37.80000000000001,0.0078579999999999
38.0,0.0081989999999998
38.19999999999999,0.0089279999999998
38.400000000000034,0.0115609999999999
38.60000000000002,0.0133299999999998
38.80000000000001,0.0132620000000001
39.0,0.0111569999999998
39.19999999999999,0.0112839999999998
39.400000000000034,0.0088459999999999
39.60000000000002,0.0077409999999999
39.80000000000001,0.0057799999999998
40.0,0.0052349999999998
40.19999999999999,0.003004
40.400000000000034,0.0038199999999999
40.60000000000002,0.0019529999999998
40.80000000000001,0.0033149999999999
41.0,0.00722
41.19999999999999,0.011619
41.400000000000034,0.0150679999999998
41.60000000000002,0.0185079999999997
41.80000000000001,0.0203859999999997
42.0,0.0175819999999999
42.19999999999999,0.0133959999999997
42.400000000000034,0.0084009999999998
42.60000000000002,0.0050719999999999
42.80000000000001,0.0037859999999998
43.0,0.0044849999999998
43.19999999999999,0.0066899999999998
43.400000000000034,0.008734
43.60000000000002,0.0089059999999998
43.80000000000001,0.0060439999999999
44.0,0.0054149999999999
44.19999999999999,0.003873
44.400000000000034,0.0032459999999998
44.60000000000002,0.0049559999999999
44.80000000000001,0.0085729999999999
45.0,0.0100629999999999
45.19999999999999,0.01207
45.400000000000034,0.0150019999999999
45.60000000000002,0.0133160000000001
45.80000000000001,0.011209
46.0,0.0070749999999999
46.19999999999999,0.004583
46.400000000000034,0.0004819999999998
46.60000000000002,-4.500000000007276e-05
46.80000000000001,-0.0009860000000001
47.0,0.0009359999999998
47.19999999999999,0.0014539999999998
47.400000000000034,0.004969
47.60000000000002,0.0082489999999999
47.80000000000001,0.0103779999999999
48.0,0.0091539999999998
48.19999999999999,0.0072599999999998
48.400000000000034,0.0044009999999998
48.60000000000002,0.0025649999999999
48.80000000000001,0.0009149999999999
49.0,0.0011939999999999
49.19999999999999,0.0014819999999999
49.400000000000034,0.0027759999999998
49.60000000000002,0.0025679999999999
49.80000000000001,0.0045459999999999
50.0,0.0069289999999999
50.19999999999999,0.0100899999999999
50.400000000000034,0.010494
50.60000000000002,0.0131199999999997
50.80000000000001,0.0138069999999999
51.0,0.0133659999999999
51.19999999999999,0.0129509999999997
51.400000000000034,0.013338
51.60000000000002,0.0117479999999998
51.80000000000001,0.0098659999999999
52.0,0.0084039999999998
52.19999999999999,0.0073769999999999
52.400000000000034,0.006259
52.60000000000002,0.0060629999999999
52.80000000000001,0.006888
53.0,0.0087159999999999
53.19999999999999,0.0109460000000001
53.400000000000034,0.0123079999999999
53.60000000000002,0.0123769999999998
53.80000000000001,0.0118839999999997
54.0,0.0110649999999998
54.19999999999999,0.0089879999999999
54.400000000000034,0.0091839999999998
54.60000000000002,0.010216
54.80000000000001,0.011778
55.0,0.0132019999999997
55.19999999999999,0.0157879999999996
55.400000000000034,0.0146939999999999
55.60000000000002,0.0139719999999998
55.80000000000001,0.011946
56.0,0.0110579999999997
56.19999999999999,0.0096849999999999
56.400000000000034,0.0092059999999998
56.60000000000002,0.0060939999999998
56.80000000000001,0.0062359999999999
57.0,0.0058079999999998
57.19999999999999,0.003973
57.400000000000034,0.0029519999999998
57.60000000000002,0.0045039999999998
57.80000000000001,0.004108
58.0,0.0030399999999999
58.19999999999999,0.0031419999999999
58.400000000000034,0.0050819999999998
58.60000000000002,0.0050949999999998
58.80000000000001,0.0035319999999998
59.00000000000006,0.0030609999999999
59.19999999999999,0.0036539999999998
59.400000000000034,0.0032449999999999
59.599999999999966,0.0022499999999998
59.80000000000001,0.0033339999999999
60.00000000000006,0.0044399999999999
60.19999999999999,0.0044379999999999
60.400000000000034,0.0043179999999998
60.599999999999966,0.0051859999999999
60.80000000000001,0.0043599999999999
61.00000000000006,0.0032839999999998
61.19999999999999,0.0013759999999998
61.400000000000034,-0.001967
61.599999999999966,-0.0048620000000001
61.80000000000001,-0.0055470000000001
62.00000000000006,-0.0055100000000001
62.19999999999999,-0.004134
62.400000000000034,-0.0018980000000001
62.599999999999966,0.0005499999999998
62.80000000000001,0.0026279999999998
63.00000000000006,0.0027649999999999
63.19999999999999,0.0041059999999999
63.400000000000034,0.005498
63.599999999999966,0.007749
63.80000000000001,0.0101149999999998
64.00000000000006,0.012032
64.19999999999999,0.0104839999999999
64.40000000000003,0.0103729999999999
64.59999999999997,0.0091829999999999
64.80000000000001,0.0076869999999999
65.00000000000006,0.0075229999999999
65.19999999999999,0.0084469999999998
65.40000000000003,0.0068869999999998
65.59999999999997,0.0075529999999999
65.80000000000001,0.007819
66.00000000000006,0.0088319999999999
66.19999999999999,0.0082479999999998
66.40000000000003,0.0105900000000001
66.59999999999997,0.011489
66.80000000000001,0.012683
67.00000000000006,0.0105009999999998
67.19999999999999,0.0097179999999998
67.40000000000003,0.0070999999999998
67.59999999999997,0.0038399999999998
67.80000000000001,0.0007239999999999
68.00000000000006,-0.0004570000000001
68.19999999999999,-0.0008799999999999
68.40000000000003,-0.0008370000000001
68.59999999999997,-0.0015740000000001
68.80000000000001,-0.0019919999999999
69.00000000000006,-0.000871
69.19999999999999,0.000645
69.40000000000003,0.0026029999999999
69.59999999999997,0.0070029999999998
69.80000000000001,0.0094079999999998
70.00000000000006,0.010216
70.19999999999999,0.0109270000000001
70.40000000000003,0.0115219999999998
70.59999999999997,0.011603
70.80000000000001,0.0124550000000001
71.00000000000006,0.0132749999999997
71.19999999999999,0.013913
71.40000000000003,0.0137260000000001
71.59999999999997,0.011514
71.80000000000001,0.0098139999999999
72.00000000000006,0.0102569999999999
72.19999999999999,0.010974
72.40000000000003,0.0114839999999998
72.59999999999997,0.0132879999999997
72.80000000000001,0.015349
73.00000000000006,0.0156969999999998
73.19999999999999,0.0146129999999997
73.40000000000003,0.0128129999999999
73.59999999999997,0.0119340000000001
73.80000000000001,0.01227
74.00000000000006,0.0137719999999998
74.19999999999999,0.0142379999999997
74.40000000000003,0.0131139999999998
74.59999999999997,0.0108299999999998
74.80000000000001,0.0071349999999998
75.00000000000006,0.0029989999999999
75.19999999999999,0.0008729999999999
75.40000000000003,0.0018749999999998
75.59999999999997,0.0037799999999998
75.80000000000001,0.0039319999999998
76.00000000000006,0.0037969999999998
76.19999999999999,0.0029439999999998
76.40000000000003,0.0026499999999998
76.59999999999997,0.0017439999999999
76.80000000000001,0.0035439999999999
77.00000000000006,0.0055449999999999
77.19999999999999,0.0090539999999998
77.40000000000003,0.0121899999999999
77.59999999999997,0.0144440000000001
77.80000000000001,0.0158059999999999
78.00000000000006,0.0140509999999998
78.19999999999999,0.0104309999999998
78.40000000000003,0.0058809999999998
78.59999999999997,0.0023699999999999
78.80000000000001,-0.000939
79.00000000000006,0.0001189999999999
79.19999999999999,0.0018959999999998
79.40000000000003,0.0031779999999999
79.59999999999997,0.0049389999999998
79.80000000000001,0.0059429999999998
80.00000000000006,0.0045759999999999
80.19999999999999,0.0028669999999999
80.40000000000003,0.0019629999999999
80.59999999999997,0.0013019999999999
80.80000000000001,0.0031309999999999
81.00000000000006,0.0059529999999998
81.19999999999999,0.0075819999999999
81.40000000000003,0.0088819999999998
81.59999999999997,0.0080329999999999
81.80000000000001,0.0039779999999998
82.00000000000006,0.0006199999999998
82.19999999999999,0.0015119999999999
82.40000000000003,0.0036829999999998
82.59999999999997,0.0062849999999998
82.80000000000001,0.0083529999999998
83.00000000000006,0.0100159999999998
83.19999999999999,0.008915
83.40000000000003,0.0060469999999999
83.59999999999997,0.0040769999999998
83.80000000000001,0.0048169999999998
84.00000000000006,0.0036379999999998
84.19999999999999,0.0020609999999998
84.40000000000003,0.0004799999999998
84.59999999999997,-0.001311
84.80000000000001,-0.0034310000000001
85.00000000000006,-0.0022950000000001
85.19999999999999,-0.000715
85.40000000000003,0.0021209999999998
85.59999999999997,0.0054819999999999
85.80000000000001,0.0074479999999998
86.00000000000006,0.0060249999999999
86.19999999999999,0.005093
86.40000000000003,0.0043539999999999
86.59999999999997,0.0038499999999999
86.80000000000001,0.002734
87.00000000000006,0.0041599999999999
87.19999999999999,0.0043629999999998
87.40000000000003,0.0042699999999999
87.59999999999997,0.0044069999999998
87.80000000000001,0.0073469999999999
88.00000000000006,0.0099039999999999
88.19999999999999,0.0127410000000001
88.40000000000003,0.0146029999999997
88.59999999999997,0.0157029999999998
88.80000000000001,0.015511
89.00000000000006,0.0125489999999999
89.19999999999999,0.0089409999999998
89.40000000000003,0.0049509999999999
89.59999999999997,0.0013429999999998
89.80000000000001,-0.0023779999999999
90.00000000000006,-0.002896
90.2,-0.002332
90.40000000000003,0.0003919999999999
90.59999999999997,0.0016749999999998
90.8,0.0030149999999999
91.00000000000006,0.0031769999999999
91.2,0.0052669999999999
91.40000000000003,0.0048829999999999
91.59999999999997,0.0059169999999999
91.8,0.0063309999999998
92.00000000000006,0.0083989999999998
92.2,0.0100169999999999
92.40000000000003,0.01106
92.59999999999997,0.010089
92.8,0.0082559999999998
93.00000000000006,0.0042599999999999
93.2,0.0002409999999999
93.40000000000003,-0.0017690000000001
93.59999999999997,-0.000407
93.8,0.0006549999999998
94.00000000000006,0.0007699999999999
94.2,0.0010819999999998
94.40000000000003,0.0024919999999999
94.59999999999997,0.0029089999999998
94.8,0.0042519999999999
95.00000000000006,0.0073239999999998
95.2,0.0074369999999999
95.40000000000003,0.0088729999999999
95.59999999999997,0.0106769999999998
95.8,0.0138819999999997
96.00000000000006,0.0153829999999999
96.2,0.0179879999999998
96.40000000000003,0.0185029999999999
96.59999999999997,0.0179610000000001
96.8,0.016645
97.00000000000006,0.0167419999999998
97.2,0.0164499999999998
97.40000000000003,0.0138009999999999
97.59999999999997,0.0104269999999999
97.8,0.0065209999999999
98.00000000000006,0.0040469999999999
98.2,0.0033449999999999
98.40000000000003,0.0033989999999999
98.59999999999997,0.0039589999999998
98.8,0.0050109999999998
99.00000000000006,0.0041169999999999
99.2,0.0023009999999998
99.40000000000003,0.0009979999999998
99.59999999999997,0.0002459999999999
99.8,0.002429
100.00000000000006,0.0054239999999998
100.2,0.0061589999999998
100.40000000000003,0.0076479999999998
100.59999999999997,0.0096389999999999
100.8,0.0097519999999999
101.00000000000006,0.0088719999999999
101.2,0.0096149999999999
101.40000000000003,0.0082909999999998
101.59999999999997,0.0050179999999999
101.8,0.0020189999999999
102.00000000000006,-0.0002699999999999
102.2,-0.00265
102.40000000000003,-0.0023710000000001
102.59999999999997,-8.300000000005525e-05
102.8,0.0023259999999998
103.00000000000006,0.0032839999999998
103.2,0.0046039999999998
103.40000000000003,0.0058179999999998
103.59999999999997,0.0040419999999998
103.8,0.0008309999999998
104.00000000000006,-0.001684
104.2,-0.002777
104.40000000000003,-0.003038
104.59999999999997,1.999999999990898e-05
104.8,0.0025329999999998
105.00000000000006,0.0035899999999999
105.2,0.0037879999999999
105.40000000000003,0.0038259999999998
105.59999999999997,0.0030799999999999
105.8,0.0013679999999998
106.00000000000006,0.0016699999999998
106.2,7.899999999994023e-05
106.40000000000003,-0.001778
106.59999999999997,-0.002888
106.8,-0.001014
107.00000000000006,0.000475
107.2,0.0033449999999999
107.40000000000003,0.0030189999999998
107.59999999999997,0.0031639999999999
107.8,0.0026489999999999
108.00000000000006,0.0014489999999998
108.2,9.999999999177334e-07
108.40000000000003,0.002294
108.59999999999997,0.0036329999999999
108.8,0.0051439999999998
109.00000000000006,0.0070279999999998
109.2,0.0072149999999999
109.40000000000003,0.0067379999999999
109.59999999999997,0.0058799999999998
109.8,0.0032459999999998
110.00000000000006,0.0016869999999999
110.2,0.0018099999999998
110.40000000000003,0.0011579999999999
110.59999999999997,0.0006359999999998
110.8,0.0003979999999998
111.00000000000006,-0.0014610000000001
111.2,-0.0034279999999999
111.40000000000003,-0.004504
111.59999999999997,-0.0065410000000001
111.8,-0.008078
112.00000000000006,-0.006539
112.2,-0.0035640000000001
112.40000000000003,6.20000000000065e-05
112.59999999999997,0.0030239999999999
112.8,0.0068699999999999
113.00000000000006,0.0073079999999998
113.2,0.0070879999999999
113.40000000000003,0.0031989999999999
113.59999999999997,0.0024149999999998
113.8,0.0031719999999999
114.00000000000006,0.007255
114.2,0.0097969999999998
114.40000000000003,0.0122339999999998
114.59999999999997,0.0131869999999998
114.8,0.0127889999999997
115.00000000000006,0.0113970000000001
115.2,0.0095099999999999
115.40000000000003,0.0105459999999997
115.59999999999997,0.010046
115.8,0.0079769999999999
116.00000000000006,0.0043689999999998
116.2,0.002456
116.40000000000003,1.0999999999983244e-05
116.59999999999997,-0.0003250000000001
116.8,0.0009639999999999
117.00000000000006,0.0034609999999999
117.2,0.0066879999999998
117.40000000000003,0.0101989999999998
117.59999999999997,0.012798
117.8,0.0124849999999998
118.00000000000006,0.0117569999999997
118.2,0.0091969999999999
118.40000000000003,0.0059659999999999
118.59999999999997,0.0032229999999999
118.8,0.0029829999999999
119.00000000000006,0.0015749999999998
119.2,0.0014099999999999
119.40000000000003,-0.000369
119.59999999999997,-0.001344
119.8,-0.001948
120.00000000000006,-0.000339
120.2,0.0005969999999999
120.40000000000003,0.0026879999999998
120.59999999999997,0.0036119999999999
120.8,0.0043239999999999
121.00000000000006,0.0047329999999998
121.2,0.0073749999999999
121.40000000000003,0.0112989999999997
121.59999999999997,0.0133579999999997
121.8,0.013281
122.00000000000006,0.0121249999999997
122.2,0.0109759999999998
122.40000000000003,0.0077079999999998
122.59999999999997,0.0042949999999999
122.8,0.0019819999999999
123.00000000000006,-0.000356
123.2,-0.0037090000000001
123.40000000000003,-0.004663
123.59999999999997,-0.0040760000000001
123.8,-0.004563
124.00000000000006,-0.0032420000000001
124.2,-0.0023159999999999
124.40000000000003,-0.002337
124.59999999999997,-0.0034180000000001
124.8,-0.0018800000000001
125.00000000000006,-0.001138
125.2,0.0001929999999998
125.40000000000003,0.0019439999999999
125.59999999999997,0.0045209999999999
125.8,0.0052879999999999
126.00000000000006,0.0061929999999998
126.2,0.0072519999999998
126.40000000000003,0.0065119999999998
126.59999999999997,0.0058009999999999
126.8,0.0062409999999999
127.00000000000006,0.007846
127.2,0.0090369999999999
127.40000000000003,0.0093099999999999
127.59999999999997,0.0097129999999998
127.8,0.0092459999999998
128.00000000000006,0.0059739999999999
128.2,0.0037959999999999
128.40000000000003,0.0048209999999999
128.59999999999997,0.0063459999999999
128.8,0.0071939999999999
129.00000000000006,0.0092419999999999
129.2,0.0092559999999999
129.40000000000003,0.008942
129.59999999999997,0.0065309999999998
129.8,0.0039879999999998
130.00000000000006,0.0014179999999999
130.2,0.0001499999999998
130.40000000000003,-0.0023520000000001
130.59999999999997,-0.003457
130.8,-0.003592
131.00000000000006,-0.0031610000000001
131.2,-0.0022630000000001
131.40000000000003,-0.0001459999999999
131.59999999999997,0.0020229999999998
131.8,0.0036049999999998
132.00000000000006,0.0058349999999998
132.2,0.0050879999999999
132.40000000000003,0.0021389999999998
132.59999999999997,4.699999999990823e-05
132.8,0.0004199999999998
133.00000000000006,0.000761
133.2,0.0015529999999999
133.40000000000003,0.0039209999999998
133.59999999999997,0.0056269999999998
133.8,0.0045149999999998
134.00000000000006,0.0032949999999998
134.2,0.0036059999999999
134.40000000000003,0.0058719999999998
134.59999999999997,0.0083509999999999
134.8,0.0091629999999998
135.00000000000006,0.0074339999999999
135.2,0.0072259999999999
135.40000000000003,0.0063229999999998
135.59999999999997,0.004008
135.8,0.0050329999999998
136.00000000000006,0.0053109999999998
136.2,0.0042559999999998
136.40000000000003,0.0016359999999999
136.59999999999997,0.0003489999999999
136.8,-0.002796
137.00000000000006,-0.0019520000000001
137.2,-0.0013320000000001
137.40000000000003,-0.000331
137.59999999999997,0.0012589999999998
137.8,0.0040449999999998
138.00000000000006,0.0043189999999999
138.2,0.0043109999999999
138.40000000000003,0.0032809999999998
138.59999999999997,0.002915
138.8,0.0024199999999998
139.00000000000006,0.0027509999999999
139.2,0.0032449999999999
139.40000000000003,0.0042919999999999
139.59999999999997,0.0032049999999999
139.8,0.0014359999999999
140.00000000000006,-0.0010270000000001
140.2,-0.003622
140.40000000000003,-0.0070540000000001
140.59999999999997,-0.00878
140.8,-0.008564
141.00000000000006,-0.006609
141.2,-0.004404
141.40000000000003,-0.001214
141.59999999999997,0.0012299999999998
141.8,0.0014569999999998
142.00000000000006,0.0003599999999999
142.2,-5.000000000010552e-05
142.40000000000003,-0.001387
142.59999999999997,-0.0006890000000001
142.8,-1.8000000000073513e-05
143.00000000000006,-0.000267
143.2,-0.0014610000000001
143.40000000000003,-0.001918
143.59999999999997,-0.0044460000000001
143.8,-0.004259
144.00000000000006,-0.001737
144.2,0.0001229999999998
144.40000000000003,0.0013589999999998
144.59999999999997,0.0041379999999999
144.8,0.0055609999999999
145.00000000000006,0.0053609999999999
145.2,0.0028979999999998
145.40000000000003,-0.0002090000000001
145.59999999999997,-0.0052039999999999
145.8,-0.0072970000000001
146.00000000000006,-0.0092670000000001
146.2,-0.0083950000000001
146.40000000000003,-0.00659
146.59999999999997,-0.003039
146.8,-0.003106
147.00000000000006,-0.001945
147.2,-0.0025399999999999
147.40000000000003,-6.499999999998174e-05
147.59999999999997,-9.700000000001374e-05
147.8,-0.0006350000000001
148.00000000000006,-0.0011700000000001
148.2,0.0006909999999999
148.40000000000003,0.0011539999999998
148.59999999999997,0.001919
148.8,0.0025409999999999
149.00000000000006,0.001093
149.2,-0.0007240000000001
149.40000000000003,-0.0024380000000001
149.59999999999997,-0.0028490000000001
149.8,-0.001921
150.00000000000006,-0.0006209999999999
150.2,0.0013539999999998
150.40000000000003,0.0023509999999999
150.59999999999997,0.0021919999999999
150.8,0.0006299999999999
151.00000000000006,0.0010189999999998
151.2,0.0014819999999999
151.40000000000003,0.0028869999999998
151.59999999999997,0.0045609999999998
151.8,0.0078859999999998
152.00000000000006,0.0094309999999999
152.2,0.0089169999999998
152.40000000000003,0.0063969999999999
152.59999999999997,0.0061199999999999
152.8,0.0052329999999998
153.00000000000006,0.0035149999999999
153.2,0.0028799999999999
153.40000000000003,0.0038789999999999
153.59999999999997,0.0034559999999999
153.8,0.0029409999999998
154.00000000000006,0.0033969999999998
154.2,0.0018119999999999
154.40000000000003,0.0005799999999998
154.59999999999997,-0.0004350000000001
154.8,0.0019209999999998
155.00000000000006,0.0041119999999998
155.2,0.0081059999999999
155.40000000000003,0.0084999999999999
155.59999999999997,0.0090349999999999
155.8,0.0074589999999998
156.00000000000006,0.007676
156.2,0.008089
156.40000000000003,0.010537
156.59999999999997,0.011171
156.8,0.0089449999999999
157.00000000000006,0.0065979999999998
157.2,0.0048029999999998
157.40000000000003,0.0032389999999999
157.59999999999997,0.0031439999999998
157.8,0.0032669999999999
158.00000000000006,0.0017309999999999
158.2,9.399999999981644e-05
158.40000000000003,0.0002569999999999
158.59999999999997,-0.000928
158.8,-0.001411
159.00000000000006,-0.0011700000000001
159.2,-0.0018170000000001
159.40000000000003,-0.0023509999999999
159.59999999999997,-0.0024779999999999
159.8,-0.002315
160.00000000000006,-0.0022870000000001
160.2,-0.002912
160.40000000000003,-0.0042280000000001
160.59999999999997,-0.003605
160.8,-0.002788
161.00000000000006,-0.0031540000000001
161.2,-0.0011370000000001
161.40000000000003,0.0006639999999999
161.59999999999997,0.0007729999999999
161.8,0.0003039999999998
162.00000000000006,0.0011209999999999
162.2,0.0015889999999998
162.40000000000003,0.0012219999999998
162.59999999999997,0.0012309999999999
162.8,0.0013409999999998
163.00000000000006,0.0011069999999999
163.2,0.0001849999999998
163.40000000000003,-0.001049
163.59999999999997,-0.002523
163.8,-0.0045270000000001
164.00000000000006,-0.005023
164.2,-0.005389
164.40000000000003,-0.0037450000000001
164.59999999999997,-0.003684
164.8,-0.0028670000000001
165.00000000000006,-0.00367
165.2,-0.003524
165.40000000000003,-0.0061630000000001
165.59999999999997,-0.0055100000000001
165.8,-0.0031350000000001
166.00000000000006,-0.0012340000000001
166.2,-0.000769
166.40000000000003,0.001417
166.59999999999997,0.0034199999999999
166.8,0.0037699999999998
167.00000000000006,0.0036339999999999
167.2,0.0028949999999998
167.40000000000003,0.0007969999999999
167.59999999999997,-0.000814
167.8,8.799999999986596e-05
168.00000000000006,0.0011639999999999
168.2,0.002699
168.40000000000003,0.0037749999999998
168.59999999999997,0.0028969999999999
168.8,0.0003339999999998
169.00000000000006,4.699999999990823e-05
169.2,0.0004729999999999
169.40000000000003,0.001757
169.59999999999997,0.0030719999999999
169.8,0.0041319999999998
170.00000000000006,0.0050129999999999
170.2,0.0057899999999999
170.40000000000003,0.0071409999999998
170.59999999999997,0.0070959999999999
170.8,0.0077169999999999
171.00000000000006,0.0065869999999998
171.2,0.0045189999999999
171.40000000000003,3.999999999892978e-06
171.59999999999997,-0.000931
171.8,-0.0006650000000001
172.00000000000006,0.0007909999999999
172.2,0.0023109999999999
172.40000000000003,0.0058009999999999
172.59999999999997,0.0084029999999999
172.8,0.0082579999999998
173.00000000000006,0.0077449999999998
173.2,0.0049439999999998
173.40000000000003,0.0031529999999999
173.59999999999997,-0.0003440000000001
173.8,-0.0017820000000001
174.00000000000006,-0.0036869999999999
174.2,-0.0021840000000001
174.40000000000003,-0.0011070000000001
174.59999999999997,0.0010959999999999
174.8,0.0037819999999999
175.00000000000006,0.0057699999999998
175.2,0.0067359999999998
175.40000000000003,0.0078979999999999
175.59999999999997,0.0074739999999999
175.8,0.0049919999999998
176.00000000000006,0.0028469999999998
176.2,0.0018139999999999
176.40000000000003,-8.000000000008001e-05
176.59999999999997,-0.0008750000000001
176.8,-0.0019919999999999
177.00000000000006,-0.001854
177.2,-0.0032389999999999
177.40000000000003,-0.0037010000000001
177.59999999999997,-0.004272
177.8,-0.0058040000000001
178.00000000000006,-0.0070050000000001
178.2,-0.0070050000000001
178.40000000000003,-0.0070050000000001
178.59999999999997,-0.0065430000000001
178.8,-0.003001
179.00000000000006,0.0018469999999999
179.2,0.0046389999999998
179.40000000000003,0.0068189999999999
179.59999999999997,0.0072439999999998
179.8,0.0058369999999998
180.00000000000006,0.0006819999999998
180.2,-0.0006920000000001
180.40000000000003,-0.0016180000000001
180.6,5.8999999999809205e-05
180.8,0.0014299999999998
181.00000000000009,0.0036449999999998
181.2,0.0017059999999999
181.40000000000003,-0.0006190000000001
181.6,-0.003268
181.8,-0.0037139999999999
182.00000000000009,-0.0035040000000001
182.2,-0.0006650000000001
182.40000000000003,0.0013009999999999
182.6,0.0018399999999998
182.8,0.0014839999999998
183.00000000000009,0.0020099999999998
183.2,0.0019879999999998
183.40000000000003,0.0026939999999999
183.6,0.0033739999999999
183.8,0.0017609999999999
184.00000000000009,-0.000796
184.2,-0.001173
184.40000000000003,-2.8000000000139025e-05
184.6,0.0028259999999999
184.8,0.0065899999999998
185.00000000000009,0.0097289999999998
185.2,0.0102399999999998
185.40000000000003,0.0072139999999998
185.6,0.0022009999999998
185.8,-0.0023380000000001
186.00000000000009,-0.005492
186.2,-0.0072340000000001
186.40000000000003,-0.0065620000000001
186.6,-0.0037869999999999
186.8,-0.0031910000000001
187.00000000000009,-0.002285
187.2,-0.002752
187.40000000000003,-0.0018610000000001
187.6,-0.002569
187.8,-0.000555
188.00000000000009,-0.0005060000000001
188.2,3.899999999990023e-05
188.40000000000003,-0.002466
188.6,-0.0038520000000001
188.8,-0.005624
189.00000000000009,-0.007376
189.2,-0.010728
189.40000000000003,-0.0101250000000001
189.6,-0.009268
189.8,-0.008636
190.00000000000009,-0.0049720000000001
190.2,-0.0003820000000001
190.40000000000003,0.0021289999999998
190.6,0.0008939999999999
190.8,0.0008649999999998
191.00000000000009,-0.000393
191.2,0.0004889999999999
191.40000000000003,0.0024869999999999
191.6,0.005282
191.8,0.0062789999999999
192.00000000000009,0.0059849999999999
192.2,0.0036089999999999
192.40000000000003,0.0005669999999999
192.6,0.0010889999999998
192.8,0.0025299999999999
193.00000000000009,0.0041209999999998
193.2,0.004583
193.40000000000003,0.0049909999999999
193.6,0.0041139999999999
193.8,0.004545
194.00000000000009,0.0047869999999998
194.2,0.0049209999999999
194.40000000000003,0.0059499999999999
194.6,0.0069929999999998
194.8,0.0069999999999998
195.00000000000009,0.0056599999999999
195.2,0.0051509999999999
195.40000000000003,0.001946
195.6,-0.001999
195.8,-0.0044700000000001
196.00000000000009,-0.004583
196.2,-0.004769
196.40000000000003,-0.004121
196.6,-0.0028639999999999
196.8,-0.003811
197.00000000000009,-0.0045890000000001
197.2,-0.0048860000000001
197.40000000000003,-0.0036249999999999
197.6,-0.002339
197.8,-0.000285
198.00000000000009,-0.0003779999999999
198.2,0.0013459999999998
198.40000000000003,0.0016719999999998
198.6,0.0014589999999998
198.8,0.0005539999999999
199.00000000000009,0.0011529999999999
199.2,0.0009119999999998
199.40000000000003,0.000842
199.6,0.0001599999999999
199.8,-0.000717
200.00000000000009,-0.0013009999999999
200.2,-0.0016990000000001
200.40000000000003,-0.0010229999999999
200.6,0.0002579999999998
200.8,0.002143
201.00000000000009,0.0019939999999998
201.2,-0.000566
201.40000000000003,-0.004
201.6,-0.006272
201.8,-0.0081950000000001
202.00000000000009,-0.007786
202.2,-0.004385
202.40000000000003,-0.002035
202.6,5.699999999997374e-05
202.8,0.0010239999999999
203.00000000000009,0.000742
203.2,0.0004259999999998
203.40000000000003,0.0004729999999999
203.6,-0.0002680000000001
203.8,-0.0005300000000001
204.00000000000009,-0.0006680000000001
204.2,-0.0024239999999999
204.40000000000003,-0.003038
204.6,-0.0031849999999999
204.8,-0.0040150000000001
205.00000000000009,-0.003762
205.2,-0.0018390000000001
205.40000000000003,0.0003629999999998
205.6,0.0019439999999999
205.8,0.0050329999999998
206.00000000000009,0.0063229999999998
206.2,0.0053999999999998
206.40000000000003,0.0028469999999998
206.6,-0.0002300000000001
206.8,-0.0038310000000001
207.00000000000009,-0.006583
207.2,-0.006558
207.40000000000003,-0.004631
207.6,-0.0029290000000001
207.8,-0.0031039999999999
208.00000000000009,-0.0037500000000001
208.2,-0.0058880000000001
208.40000000000003,-0.0067989999999999
208.6,-0.0072990000000001
208.8,-0.00506
209.00000000000009,-0.0024710000000001
209.2,-0.001057
209.40000000000003,-0.001927
209.6,-0.0039919999999999
209.8,-0.0066270000000001
210.00000000000009,-0.0087209999999999
210.2,-0.007492
210.40000000000003,-0.006027
210.6,-0.002925
210.8,-4.300000000001525e-05
211.00000000000009,0.0032619999999998
211.2,0.0021609999999998
211.40000000000003,0.0003139999999999
211.6,-0.000896
211.8,-0.001956
212.00000000000009,-0.003676
212.2,-0.0021349999999999
212.40000000000003,-0.000407
212.6,0.0016319999999998
212.8,0.0023879999999998
213.00000000000009,0.001846
213.2,0.0002739999999998
213.40000000000003,-0.001789
213.6,-0.0041870000000001
213.8,-0.005203
214.00000000000009,-0.0035709999999999
214.2,-0.0015169999999999
214.40000000000003,0.0010179999999999
214.6,0.0025779999999999
214.8,0.0028569999999998
215.00000000000009,0.0027319999999999
215.2,0.001811
215.40000000000003,0.0025389999999998
215.6,0.0042749999999998
215.8,0.0066599999999998
216.00000000000009,0.0074969999999998
216.2,0.0075109999999998
216.40000000000003,0.0059039999999999
216.6,0.0039569999999999
216.8,0.0030399999999999
217.00000000000009,0.0018799999999998
217.2,-0.0003000000000001
217.40000000000003,-0.0031210000000001
217.6,-0.0041650000000001
217.8,-0.004356
218.00000000000009,-0.0045970000000001
218.2,-0.0053940000000001
218.40000000000003,-0.0049970000000001
218.6,-0.004752
218.8,-0.0047950000000001
219.00000000000009,-0.004855
219.2,-0.003265
219.40000000000003,-0.0031860000000001
219.6,-0.004869
219.8,-0.0056740000000001
220.00000000000009,-0.006391
220.2,-0.0044779999999999
220.40000000000003,-0.002725
220.6,0.0001469999999998
220.8,-0.0005669999999999
221.00000000000009,-0.0003170000000001
221.2,-0.002285
221.40000000000003,-0.0018409999999999
221.6,-0.002043
221.8,-0.001298
222.00000000000009,0.0004499999999998
222.2,0.0011869999999998
222.40000000000003,-0.0001930000000001
222.6,-0.0015180000000001
222.8,-0.0023090000000001
223.00000000000009,-0.005524
223.2,-0.0084090000000001
223.40000000000003,-0.0088989999999999
223.6,-0.0087220000000001
223.8,-0.008286
224.00000000000009,-0.0073990000000001
224.2,-0.0050000000000001
224.40000000000003,-0.0038219999999999
224.6,-0.0036550000000001
224.8,-0.004912
225.00000000000009,-0.0059759999999999
225.2,-0.007041
225.40000000000003,-0.0079219999999999
225.6,-0.0085000000000001
225.8,-0.0067860000000001
226.00000000000009,-0.004267
226.2,-0.002529
226.40000000000003,-0.002364
226.6,-0.000102
226.8,0.0025689999999998
227.00000000000009,0.0032969999999998
227.2,0.002942
227.40000000000003,0.003047
227.6,0.001668
227.8,-0.0012340000000001
228.00000000000009,-0.0018310000000001
228.2,-0.0025440000000001
228.40000000000003,-0.002421
228.6,-0.0035340000000001
228.8,-0.0065410000000001
229.00000000000009,-0.0091210000000001
229.2,-0.0083950000000001
229.40000000000003,-0.006507
229.6,-0.0042630000000001
229.8,-0.001263
230.00000000000009,0.0001569999999999
230.2,-0.000496
230.40000000000003,-0.001138
230.6,-0.0027890000000001
230.8,-0.002547
231.00000000000009,-0.003449
231.2,-0.005112
231.40000000000003,-0.0078450000000001
231.6,-0.008258
231.8,-0.0087240000000001
232.00000000000009,-0.0069110000000001
232.2,-0.002385
232.40000000000003,0.0018719999999998
232.6,0.0017669999999998
232.8,0.0013329999999998
233.00000000000009,0.0007289999999999
233.2,-0.0017869999999999
233.40000000000003,-0.0041930000000001
233.6,-0.00299
233.8,-0.000753
234.00000000000009,0.0016789999999999
234.2,0.0034479999999998
234.40000000000003,0.004483
234.6,0.0040339999999998
234.8,0.0024599999999999
235.00000000000009,-0.0008220000000001
235.2,-0.002653
235.40000000000003,-0.003281
235.6,-0.002528
235.8,-0.0004300000000001
236.00000000000009,0.0022709999999999
236.2,0.0044679999999999
236.40000000000003,0.0040389999999999
236.6,0.0009529999999999
236.8,-0.0044060000000001
237.00000000000009,-0.006882
237.2,-0.007716
237.40000000000003,-0.0070069999999999
237.6,-0.0044060000000001
237.8,0.0013949999999998
238.00000000000009,0.0042579999999998
238.2,0.0057149999999999
238.40000000000003,0.0068439999999998
238.6,0.0070339999999999
238.8,0.0025859999999999
239.00000000000009,0.000931
239.2,-0.0021300000000001
239.40000000000003,-0.003114
239.6,-0.00374
239.8,7.899999999994023e-05
240.00000000000009,0.0013939999999998
240.2,0.0041469999999999
240.40000000000003,0.006807
240.6,0.0099449999999998
240.8,0.00905
241.00000000000009,0.0089739999999998
241.2,0.0090169999999998
241.40000000000003,0.00817
241.6,0.0053029999999998
241.8,0.0050239999999999
242.00000000000009,0.0050919999999998
242.2,0.0047449999999999
242.40000000000003,0.0037519999999999
242.6,0.0043179999999998
242.8,0.0042169999999999
243.00000000000009,0.0030689999999999
243.2,0.0018909999999998
243.40000000000003,0.001722
243.6,0.0023279999999998
243.8,0.0007299999999998
244.00000000000009,0.0007519999999998
244.2,0.000815
244.40000000000003,-0.0012230000000001
244.6,-0.002637
244.8,-0.0013580000000001
245.00000000000009,-0.000733
245.2,-0.000537
245.40000000000003,0.0037349999999998
245.6,0.0068929999999998
245.8,0.0082149999999998
246.00000000000009,0.0075459999999998
246.2,0.0075269999999998
246.40000000000003,0.0045599999999998
246.6,0.0029129999999999
246.8,0.0017869999999999
247.00000000000009,0.0010209999999999
247.2,0.0011419999999999
247.40000000000003,0.0012829999999999
247.6,-0.0001790000000001
247.8,-0.0034469999999999
248.00000000000009,-0.005343
248.2,-0.0074720000000001
248.40000000000003,-0.0068650000000001
248.6,-0.0069380000000001
248.8,-0.005681
249.00000000000009,-0.0047270000000001
249.2,-0.005784
249.40000000000003,-0.0082269999999999
249.6,-0.0086190000000001
249.8,-0.0061870000000001
250.00000000000009,-0.004094
250.2,-0.000599
250.40000000000003,0.0003929999999998
250.6,0.0004549999999998
250.8,0.0002459999999999
251.00000000000009,0.0010479999999999
251.2,-0.0010080000000001
251.40000000000003,-0.0037
251.6,-0.0084980000000001
251.8,-0.013444
252.00000000000009,-0.01577
252.2,-0.014431
252.40000000000003,-0.010766
252.6,-0.007441
252.8,-0.005014
253.00000000000009,-0.005581
253.2,-0.0056230000000001
253.40000000000003,-0.0052860000000001
253.6,-0.00242
253.8,-0.0019010000000001
254.00000000000009,0.0004539999999999
254.2,0.0008359999999998
254.40000000000003,0.0011319999999999
254.6,0.0014319999999998
254.8,0.0028839999999998
255.00000000000009,0.0028929999999998
255.2,0.0018989999999998
255.40000000000003,-4.8000000000048e-05
255.6,-0.001913
255.8,-0.0028080000000001
256.00000000000006,-0.0037800000000001
256.2,-0.004081
256.40000000000003,-0.0033150000000001
256.6,-0.0029350000000001
256.8,-0.0024270000000001
257.00000000000006,-0.0021250000000001
257.2,-0.0017520000000001
257.40000000000003,-0.0018949999999999
257.6,-0.003481
257.8,-0.0052400000000001
258.00000000000006,-0.0074880000000001
258.2,-0.0072670000000001
258.40000000000003,-0.008628
258.6,-0.00655
258.8,-0.0074020000000001
259.00000000000006,-0.006348
259.2,-0.0072670000000001
259.40000000000003,-0.0062490000000001
259.6,-0.006855
259.8,-0.0032160000000001
260.00000000000006,-0.0004790000000001
260.2,0.0017939999999998
260.40000000000003,0.0011409999999998
260.6,-0.001986
260.8,-0.0050910000000001
261.00000000000006,-0.0089670000000001
261.2,-0.009813
261.40000000000003,-0.0082030000000001
261.6,-0.005387
261.8,-0.0049799999999999
262.00000000000006,-0.003918
262.2,-0.003686
262.40000000000003,-0.002348
262.6,-0.0014610000000001
262.8,-0.0005140000000001
263.00000000000006,0.0006489999999998
263.2,0.0002389999999998
263.40000000000003,-0.0005440000000001
263.6,0.0002119999999998
263.8,0.0023029999999999
264.00000000000006,0.0037999999999998
264.2,0.0053319999999998
264.40000000000003,0.0038569999999999
264.6,0.0025039999999998
264.8,-0.0019470000000001
265.00000000000006,-0.0043650000000001
265.2,-0.0042730000000001
265.40000000000003,-0.0018090000000001
265.6,0.0003559999999998
265.8,0.0040069999999998
266.00000000000006,0.0051189999999998
266.2,0.0025589999999999
266.40000000000003,4.300000000001525e-05
266.6,-0.004054
266.8,-0.0057580000000001
267.00000000000006,-0.0070480000000001
267.2,-0.005911
267.40000000000003,-0.0056360000000001
267.6,-0.0026410000000001
267.8,-0.0007320000000001
268.00000000000006,-0.000107
268.2,-0.002623
268.40000000000003,-0.0055740000000001
268.6,-0.007411
268.8,-0.0077329999999999
269.00000000000006,-0.007028
269.2,-0.004744
269.40000000000003,-0.0009480000000001
269.6,0.0013829999999999
269.8,0.0015659999999999
270.00000000000006,0.0001989999999998
270.2,0.0013139999999998
270.40000000000003,0.0029539999999999
270.6,0.0021079999999999
270.8,0.0020199999999999
271.00000000000006,0.0014859999999998
271.2,-0.001025
271.40000000000003,-0.0047639999999999
271.6,-0.004105
271.8,-0.002191
272.00000000000006,0.0003599999999999
272.2,0.0003449999999998
272.40000000000003,0.0001329999999999
272.6,-0.0010780000000001
272.8,-0.0027920000000001
273.00000000000006,-0.0031499999999999
273.2,-0.002062
273.40000000000003,-0.002064
273.6,-0.0039010000000001
273.8,-0.0038770000000001
274.00000000000006,-0.003479
274.2,-0.0021030000000001
274.40000000000003,-6.20000000000065e-05
274.6,0.001417
274.8,-0.0006000000000001
275.00000000000006,-0.002013
275.2,-0.0037770000000001
275.40000000000003,-0.003749
275.6,-0.003649
275.8,-0.0026600000000001
276.00000000000006,-0.0033640000000001
276.2,-0.0039520000000001
276.40000000000003,-0.005956
276.6,-0.006161
276.8,-0.005419
277.00000000000006,-0.0049810000000001
277.2,-0.0052229999999999
277.40000000000003,-0.0044890000000001
277.6,-0.005416
277.8,-0.006097
278.00000000000006,-0.006045
278.2,-0.0071130000000001
278.40000000000003,-0.0104540000000001
278.6,-0.0124650000000001
278.8,-0.0149730000000001
279.00000000000006,-0.0149000000000001
279.2,-0.0125399999999999
279.40000000000003,-0.0086780000000001
279.6,-0.007247
279.8,-0.0059960000000001
280.00000000000006,-0.0058150000000001
280.2,-0.006121
280.40000000000003,-0.006868
280.6,-0.005001
280.8,-0.002723
281.00000000000006,-0.00357
281.2,-0.004286
281.40000000000003,-0.0034770000000001
281.6,-0.0024350000000001
281.8,-0.0045749999999999
282.00000000000006,-0.006156
282.2,-0.0065970000000001
282.40000000000003,-0.00645
282.6,-0.0067920000000001
282.8,-0.00522
283.00000000000006,-0.0027410000000001
283.2,-0.000679
283.40000000000003,3.999999999892978e-06
283.6,0.0002529999999998
283.8,0.0003779999999999
284.00000000000006,-0.000326
284.2,-0.003344
284.40000000000003,-0.004825
284.6,-0.0062200000000001
284.8,-0.0059200000000001
285.00000000000006,-0.0033400000000001
285.2,-0.0003049999999999
285.40000000000003,0.0014879999999999
285.6,0.0018049999999998
285.8,0.0003049999999999
286.00000000000006,-0.0026970000000001
286.2,-0.0056580000000001
286.40000000000003,-0.0075800000000001
286.6,-0.0079870000000001
286.8,-0.009298
287.00000000000006,-0.009203
287.2,-0.0073770000000001
287.40000000000003,-0.006259
287.6,-0.005128
287.8,-0.004426
288.00000000000006,-0.0063619999999999
288.2,-0.0085570000000001
288.40000000000003,-0.010426
288.6,-0.0115390000000001
288.8,-0.0125920000000001
289.00000000000006,-0.011751
289.2,-0.0103270000000001
289.40000000000003,-0.008885
289.6,-0.0092880000000001
289.8,-0.0064950000000001
290.00000000000006,-0.002215
290.2,0.0004079999999999
290.40000000000003,0.0014919999999998
290.6,0.0031899999999998
290.8,0.0029399999999999
291.00000000000006,0.0006689999999998
291.2,-0.0027540000000001
291.40000000000003,-0.005117
291.6,-0.0085190000000001
291.8,-0.0099610000000001
292.00000000000006,-0.011338
292.2,-0.010782
292.40000000000003,-0.0099710000000001
292.6,-0.006895
292.8,-0.005317
293.00000000000006,-0.0030879999999999
293.2,-0.002763
293.40000000000003,-0.0033290000000001
293.6,-0.0048920000000001
293.8,-0.00519
294.00000000000006,-0.0055390000000001
294.2,-0.0044920000000001
294.40000000000003,-0.0054020000000001
294.6,-0.0072039999999999
294.8,-0.0067970000000001
295.00000000000006,-0.007017
295.2,-0.0068240000000001
295.40000000000003,-0.005336
295.6,-0.003014
295.8,-0.0043270000000001
296.00000000000006,-0.0051350000000001
296.2,-0.0054400000000001
296.40000000000003,-0.0053610000000001
296.6,-0.0045240000000001
296.8,-0.003179
296.99999999999994,-0.003595
297.2,-0.0048920000000001
297.3999999999999,-0.0023520000000001
297.6,-4.599999999999049e-05
297.7999999999999,0.0026529999999997
297.99999999999994,0.0063679999999999
298.1999999999999,0.0085299999999999
298.3999999999999,0.0079949999999999
298.6,0.0085519999999998
298.7999999999999,0.0079789999999999
298.99999999999994,0.0079279999999999
299.1999999999999,0.007579
299.3999999999999,0.0086179999999997
299.6,0.0087689999999998
299.7999999999999,0.006556
299.99999999999994,0.0035259999999999
300.1999999999999,0.0003469999999998
300.3999999999999,-0.0022410000000001
300.6,-0.0060980000000001
300.7999999999999,-0.0062460000000001
300.99999999999994,-0.006528
301.1999999999999,-0.005579
301.3999999999999,-0.0066300000000001
301.6,-0.0049320000000001
301.7999999999999,-0.0042090000000001
301.99999999999994,-0.003522
302.1999999999999,-0.005316
302.3999999999999,-0.0060790000000001
302.6,-0.005635
302.7999999999999,-0.004329
302.99999999999994,-0.0039820000000001
303.1999999999999,-0.003584
303.3999999999999,-0.001705
303.6,-0.000868
303.7999999999999,-0.002124
303.99999999999994,-0.0031750000000001
304.1999999999999,-0.0038340000000001
304.3999999999999,-0.0058710000000001
304.6,-0.0089609999999999
304.7999999999999,-0.0102490000000001
304.99999999999994,-0.0109540000000001
305.1999999999999,-0.009668
305.3999999999999,-0.0067570000000001
305.6,-0.003263
305.7999999999999,0.0001069999999998
305.99999999999994,0.0026079999999999
306.1999999999999,0.0021439999999999
306.3999999999999,0.0010769999999999
306.6,-0.0008780000000001
306.7999999999999,-0.0032720000000001
306.99999999999994,-0.0035850000000001
307.1999999999999,-0.001411
307.3999999999999,-0.001149
307.6,-0.0022120000000001
307.7999999999999,-0.0034830000000001
307.99999999999994,-0.005138
308.1999999999999,-0.0064840000000001
308.3999999999999,-0.007579
308.6,-0.0072560000000001
308.7999999999999,-0.0068480000000001
308.99999999999994,-0.0062470000000001
309.1999999999999,-0.0087240000000001
309.3999999999999,-0.011354
309.6,-0.0113739999999999
309.7999999999999,-0.011185
309.99999999999994,-0.0128430000000001
310.1999999999999,-0.0128560000000002
310.3999999999999,-0.011951
310.6,-0.0120230000000001
310.7999999999999,-0.0122220000000001
310.99999999999994,-0.010242
311.1999999999999,-0.009436
311.3999999999999,-0.00844
311.6,-0.008305
311.7999999999999,-0.007703
311.99999999999994,-0.0075720000000001
312.1999999999999,-0.007201
312.3999999999999,-0.0089130000000001
312.6,-0.0114720000000001
312.7999999999999,-0.0107330000000001
312.99999999999994,-0.010297
313.1999999999999,-0.009166
313.3999999999999,-0.006507
313.6,-0.0050020000000001
313.7999999999999,-0.0065520000000001
313.99999999999994,-0.0095750000000001
314.1999999999999,-0.011913
314.3999999999999,-0.013525
314.6,-0.01113
314.7999999999999,-0.008742
314.99999999999994,-0.005916
315.1999999999999,-0.003508
315.3999999999999,-0.0014990000000001
315.6,-0.003025
315.7999999999999,-0.004831
315.99999999999994,-0.0068400000000001
316.1999999999999,-0.008024
316.3999999999999,-0.009624
316.6,-0.0103110000000001
316.7999999999999,-0.0117100000000001
316.99999999999994,-0.0108140000000001
317.1999999999999,-0.0105190000000001
317.3999999999999,-0.009724
317.6,-0.0078900000000001
317.7999999999999,-0.006607
317.99999999999994,-0.0078150000000001
318.1999999999999,-0.009274
318.3999999999999,-0.009611
318.6,-0.009992
318.7999999999999,-0.009309
318.99999999999994,-0.0073180000000001
319.1999999999999,-0.0063520000000001
319.3999999999999,-0.0068560000000001
319.6,-0.0083030000000001
319.7999999999999,-0.0110920000000001
319.99999999999994,-0.014132
320.1999999999999,-0.0150510000000001
320.3999999999999,-0.0143790000000001
320.6,-0.0154770000000001
320.7999999999999,-0.0137850000000001
320.99999999999994,-0.012029
321.1999999999999,-0.011193
321.3999999999999,-0.012434
321.6,-0.0110530000000002
321.7999999999999,-0.011759
321.99999999999994,-0.010399
322.1999999999999,-0.009273
322.3999999999999,-0.00689
322.6,-0.005659
322.7999999999999,-0.0044840000000001
322.99999999999994,-0.005166
323.1999999999999,-0.0049380000000001
323.3999999999999,-0.006698
323.6,-0.0085710000000001
323.7999999999999,-0.0093420000000001
323.99999999999994,-0.0098060000000002
324.1999999999999,-0.0109810000000001
324.3999999999999,-0.0106670000000002
324.6,-0.009255
324.7999999999999,-0.010315
324.99999999999994,-0.0107210000000002
325.1999999999999,-0.0105440000000001
325.3999999999999,-0.0093130000000001
325.6,-0.0090800000000001
325.7999999999999,-0.0074210000000001
325.99999999999994,-0.006844
326.1999999999999,-0.006491
326.3999999999999,-0.007889
326.6,-0.0062440000000001
326.7999999999999,-0.004153
326.99999999999994,-0.0028000000000001
327.1999999999999,-0.002232
327.3999999999999,-0.0020459999999999
327.6,-0.004777
327.7999999999999,-0.0074530000000001
327.99999999999994,-0.009049
328.1999999999999,-0.0100919999999999
328.3999999999999,-0.010418
328.6,-0.0091260000000001
328.7999999999999,-0.007408
328.99999999999994,-0.005837
329.1999999999999,-0.0058580000000001
329.3999999999999,-0.007125
329.6,-0.010839
329.7999999999999,-0.0140840000000002
329.99999999999994,-0.0166110000000001
330.1999999999999,-0.017722
330.3999999999999,-0.020248
330.6,-0.0215940000000001
330.7999999999999,-0.0215390000000001
330.99999999999994,-0.019622
331.1999999999999,-0.0177770000000001
331.3999999999999,-0.011932
331.6,-0.0068220000000001
331.7999999999999,-0.004428
331.99999999999994,-0.005222
332.1999999999999,-0.006601
332.3999999999999,-0.012067
332.6,-0.0150650000000001
332.7999999999999,-0.0173500000000002
332.99999999999994,-0.0176990000000001
333.1999999999999,-0.0176770000000001
333.3999999999999,-0.01417
333.6,-0.0135940000000001
333.7999999999999,-0.01373
333.99999999999994,-0.0143900000000001
334.1999999999999,-0.014655
334.3999999999999,-0.0141390000000001
334.6,-0.011716
334.7999999999999,-0.010027
334.99999999999994,-0.01004
335.1999999999999,-0.01024
335.3999999999999,-0.0097980000000001
335.6,-0.0113040000000002
335.7999999999999,-0.0124000000000001
335.99999999999994,-0.011975
336.1999999999999,-0.0139310000000001
336.3999999999999,-0.0157260000000001
336.6,-0.016048
336.7999999999999,-0.0153160000000001
336.99999999999994,-0.0157900000000001
337.1999999999999,-0.013676
337.3999999999999,-0.014164
337.6,-0.0151610000000002
337.7999999999999,-0.014456
337.99999999999994,-0.0145630000000001
338.1999999999999,-0.0153659999999999
338.3999999999999,-0.0142660000000001
338.6,-0.0137260000000001
338.7999999999999,-0.0140410000000001
338.99999999999994,-0.012758
339.1999999999999,-0.01147
339.3999999999999,-0.0127400000000001
339.6,-0.012885
339.7999999999999,-0.0122790000000001
339.99999999999994,-0.013149
340.1999999999999,-0.0140440000000001
340.3999999999999,-0.014135
340.6,-0.0155560000000001
340.7999999999999,-0.0167019999999999
340.99999999999994,-0.015695
341.1999999999999,-0.014574
341.3999999999999,-0.0124620000000001
341.6,-0.009962
341.7999999999999,-0.010537
341.99999999999994,-0.011368
342.1999999999999,-0.0110810000000001
342.3999999999999,-0.012151
342.6,-0.01116
342.7999999999999,-0.009104
342.99999999999994,-0.0082680000000001
343.1999999999999,-0.008253
343.3999999999999,-0.0088270000000001
343.6,-0.011446
343.7999999999999,-0.0117250000000002
343.99999999999994,-0.01102
344.1999999999999,-0.0117550000000001
344.3999999999999,-0.010752
344.6,-0.009408
344.7999999999999,-0.010825
344.99999999999994,-0.0122520000000001
345.1999999999999,-0.0122220000000001
345.3999999999999,-0.012161
345.6,-0.0102580000000001
345.7999999999999,-0.0080440000000001
345.99999999999994,-0.0074390000000001
346.1999999999999,-0.0068160000000001
346.3999999999999,-0.006283
346.6,-0.0071750000000001
346.7999999999999,-0.0058660000000001
346.99999999999994,-0.0056910000000001
347.1999999999999,-0.007708
347.3999999999999,-0.01055
347.6,-0.0132830000000001
347.7999999999999,-0.0174560000000001
347.99999999999994,-0.0177910000000001
348.1999999999999,-0.01509
348.3999999999999,-0.012043
348.6,-0.0112530000000001
348.7999999999999,-0.0097580000000001
348.99999999999994,-0.010021
349.1999999999999,-0.0124140000000001
349.3999999999999,-0.0151149999999999
349.6,-0.014807
349.7999999999999,-0.01624
349.99999999999994,-0.016264
350.1999999999999,-0.0146590000000002
350.3999999999999,-0.0118930000000001
350.6,-0.0111590000000001
350.7999999999999,-0.010186
350.99999999999994,-0.012496
351.1999999999999,-0.0142269999999999
351.3999999999999,-0.015805
351.6,-0.0171860000000001
351.7999999999999,-0.018353
351.99999999999994,-0.017363
352.1999999999999,-0.018494
352.3999999999999,-0.022029
352.6,-0.0231560000000001
352.7999999999999,-0.0244840000000001
352.99999999999994,-0.025803
353.1999999999999,-0.023327
353.3999999999999,-0.019489
353.6,-0.0154549999999999
353.7999999999999,-0.0109400000000001
353.99999999999994,-0.0081760000000001
354.1999999999999,-0.008712
354.3999999999999,-0.008582
354.6,-0.010318
354.7999999999999,-0.01122
354.99999999999994,-0.0118
355.1999999999999,-0.013004
355.3999999999999,-0.0162980000000001
355.6,-0.016701
355.7999999999999,-0.0181140000000001
355.99999999999994,-0.019657
356.1999999999999,-0.0189860000000001
356.3999999999999,-0.01489
356.6,-0.0121930000000001
356.7999999999999,-0.0113260000000001
356.99999999999994,-0.010132
357.1999999999999,-0.009997
357.3999999999999,-0.009937
357.6,-0.0112970000000001
357.7999999999999,-0.0133180000000001
357.99999999999994,-0.0142570000000001
358.1999999999999,-0.0159630000000001
358.3999999999999,-0.0197010000000001
358.6,-0.024092
358.7999999999999,-0.0250490000000001
358.99999999999994,-0.0258900000000001
359.1999999999999,-0.025589
359.3999999999999,-0.0236100000000001
359.6,-0.0195020000000001
359.7999999999999,-0.018621
359.99999999999994,-0.0170810000000001
360.1999999999999,-0.016898
360.3999999999999,-0.0174780000000001
360.6,-0.0172070000000001
360.7999999999999,-0.0144600000000001
361.0,-0.012375
361.1999999999999,-0.010501
361.3999999999999,-0.010631
361.6,-0.0156830000000001
361.7999999999999,-0.017994
362.0,-0.0193720000000001
362.1999999999999,-0.019991
362.3999999999999,-0.0204730000000001
362.6,-0.016432
362.7999999999999,-0.0152309999999999
363.0,-0.0147730000000001
363.1999999999999,-0.013425
363.3999999999999,-0.0110560000000001
363.6,-0.0091510000000001
363.7999999999999,-0.006326
364.0,-0.0064700000000001
364.1999999999999,-0.0077409999999999
364.3999999999999,-0.0101440000000001
364.6,-0.0135400000000001
364.7999999999999,-0.01749
365.0,-0.0162140000000001
365.1999999999999,-0.0157720000000001
365.3999999999999,-0.0150560000000001
365.6,-0.0157710000000002
365.7999999999999,-0.016996
366.0,-0.02075
366.1999999999999,-0.019846
366.3999999999999,-0.01753
366.6,-0.0150879999999999
366.7999999999999,-0.0129670000000001
367.0,-0.0107430000000001
367.1999999999999,-0.0121740000000001
367.3999999999999,-0.0131610000000002
367.6,-0.013827
367.7999999999999,-0.014251
368.0,-0.014512
368.1999999999999,-0.014159
368.3999999999999,-0.0156770000000001
368.6,-0.017794
368.7999999999999,-0.0180740000000001
369.0,-0.0168940000000001
369.1999999999999,-0.018064
369.3999999999999,-0.0194739999999999
369.6,-0.01977
369.7999999999999,-0.021285
370.0,-0.0240960000000001
370.1999999999999,-0.0232460000000001
370.3999999999999,-0.018995
370.6,-0.0157800000000001
370.7999999999999,-0.0134200000000002
371.0,-0.014564
371.1999999999999,-0.01794
371.3999999999999,-0.0210130000000001
371.6,-0.022005
371.7999999999999,-0.0217550000000001
372.0,-0.0198360000000001
372.1999999999999,-0.017373
372.3999999999999,-0.017816
372.6,-0.0206620000000001
372.7999999999999,-0.0244969999999999
373.0,-0.0252290000000001
373.1999999999999,-0.0250220000000001
373.3999999999999,-0.0244969999999999
373.6,-0.0213530000000001
373.7999999999999,-0.0191480000000001
374.0,-0.0190110000000001
374.1999999999999,-0.0184460000000001
374.3999999999999,-0.018132
374.6,-0.016661
374.7999999999999,-0.0137770000000001
375.0,-0.011117
375.1999999999999,-0.012655
375.3999999999999,-0.0124410000000001
375.6,-0.013055
375.7999999999999,-0.0144000000000001
376.0,-0.0165060000000001
376.1999999999999,-0.016073
376.3999999999999,-0.017587
376.6,-0.0212510000000001
376.7999999999999,-0.023935
377.0,-0.0234450000000001
377.1999999999999,-0.022866
377.3999999999999,-0.020653
377.6,-0.0153100000000001
377.7999999999999,-0.0129920000000001
378.0,-0.0124980000000001
378.1999999999999,-0.011004
378.3999999999999,-0.0082300000000001
378.6,-0.0085540000000001
378.7999999999999,-0.0096210000000001
379.0,-0.0121840000000001
379.1999999999999,-0.012869
379.3999999999999,-0.0157090000000001
379.6,-0.0176280000000002
379.7999999999999,-0.0185010000000001
380.0,-0.0176439999999999
380.1999999999999,-0.0187460000000001
380.3999999999999,-0.0174590000000001
380.6,-0.015981
380.7999999999999,-0.0136210000000001
381.0,-0.0137340000000001
381.1999999999999,-0.013503
381.3999999999999,-0.0149840000000001
381.6,-0.015006
381.7999999999999,-0.014188
382.0,-0.0105590000000002
382.1999999999999,-0.008636
382.3999999999999,-0.0086829999999999
382.6,-0.010772
382.7999999999999,-0.013174
383.0,-0.0148810000000001
383.1999999999999,-0.014277
383.3999999999999,-0.0138420000000001
383.6,-0.013219
383.7999999999999,-0.0118060000000002
384.0,-0.0126460000000001
384.1999999999999,-0.014323
384.3999999999999,-0.0157850000000001
384.6,-0.01625
384.7999999999999,-0.016801
385.0,-0.016796
385.1999999999999,-0.0178329999999999
385.3999999999999,-0.0169560000000001
385.6,-0.0159630000000001
385.7999999999999,-0.017409
386.0,-0.0183900000000001
386.1999999999999,-0.0179140000000002
386.3999999999999,-0.0177070000000001
386.6,-0.017484
386.7999999999999,-0.013044
387.0,-0.0105300000000001
387.1999999999999,-0.008944
387.3999999999999,-0.009468
387.6,-0.011031
387.7999999999999,-0.0127300000000001
388.0,-0.0123330000000001
388.1999999999999,-0.014021
388.3999999999999,-0.0149890000000001
388.6,-0.0143200000000001
388.7999999999999,-0.0145840000000001
389.0,-0.015676
389.1999999999999,-0.0163300000000001
389.3999999999999,-0.0160070000000001
389.6,-0.0172229999999999
389.7999999999999,-0.0173770000000001
390.0,-0.01974
390.1999999999999,-0.0185760000000001
390.3999999999999,-0.017203
390.6,-0.0169860000000001
390.7999999999999,-0.020064
391.0,-0.019246
391.1999999999999,-0.017444
391.3999999999999,-0.016523
391.6,-0.016469
391.7999999999999,-0.013824
392.0,-0.013214
392.1999999999999,-0.016113
392.3999999999999,-0.0171560000000001
392.6,-0.0157530000000001
392.7999999999999,-0.0153020000000001
393.0,-0.015317
393.1999999999999,-0.0134850000000001
393.3999999999999,-0.011627
393.6,-0.0103980000000001
393.7999999999999,-0.0087400000000001
394.0,-0.008458
394.1999999999999,-0.0087860000000001
394.3999999999999,-0.011964
394.6,-0.0145669999999999
394.7999999999999,-0.016863
395.0,-0.015279
395.1999999999999,-0.0140900000000001
395.3999999999999,-0.0133450000000001
395.6,-0.015015
395.7999999999999,-0.0187080000000001
396.0,-0.0206600000000001
396.1999999999999,-0.0223440000000001
396.3999999999999,-0.024763
396.6,-0.026615
396.7999999999999,-0.0237310000000001
397.0,-0.023533
397.1999999999999,-0.0238
397.3999999999999,-0.0218280000000001
397.6,-0.0198230000000001
397.7999999999999,-0.0216230000000001
398.0,-0.021827
398.1999999999999,-0.021355
398.3999999999999,-0.019964
398.6,-0.0175629999999999
398.7999999999999,-0.015327
399.0,-0.0159770000000001
399.1999999999999,-0.0181710000000001
399.3999999999999,-0.0206600000000001
399.6,-0.0230810000000001
399.7999999999999,-0.024542
400.0,-0.0246410000000001
400.1999999999999,-0.0218980000000001
400.3999999999999,-0.0196900000000002
400.6,-0.01797
400.7999999999999,-0.0185820000000001
401.0,-0.0175850000000001
401.1999999999999,-0.017632
401.3999999999999,-0.01722
401.6,-0.0167140000000001
401.7999999999999,-0.0133130000000001
402.0,-0.013308
402.1999999999999,-0.014601
402.3999999999999,-0.0153500000000001
402.6,-0.014701
402.7999999999999,-0.0142840000000001
403.0,-0.012699
403.1999999999999,-0.0103490000000001
403.3999999999999,-0.0093970000000001
403.6,-0.009803
403.7999999999999,-0.013325
404.0,-0.0176530000000001
404.1999999999999,-0.019967
404.3999999999999,-0.021408
404.6,-0.0240310000000001
404.7999999999999,-0.022442
405.0,-0.018194
405.1999999999999,-0.0165010000000001
405.3999999999999,-0.015913
405.6,-0.0138
405.7999999999999,-0.0138800000000001
406.0,-0.016197
406.1999999999999,-0.019082
406.3999999999999,-0.0205140000000001
406.6,-0.0197370000000001
406.7999999999999,-0.019087
407.0,-0.0201490000000001
407.1999999999999,-0.021449
407.3999999999999,-0.023247
407.6,-0.0265239999999999
407.7999999999999,-0.0264470000000001
408.0,-0.0233929999999999
408.1999999999999,-0.020278
408.3999999999999,-0.0172100000000001
408.6,-0.015301
408.7999999999999,-0.015694
409.0,-0.016944
409.1999999999999,-0.0155690000000001
409.3999999999999,-0.0141550000000001
409.6,-0.0119880000000001
409.7999999999999,-0.0094640000000001
410.0,-0.008196
410.1999999999999,-0.0098990000000001
410.3999999999999,-0.0122840000000001
410.6,-0.0151860000000001
410.7999999999999,-0.01977
411.0,-0.0214500000000001
411.1999999999999,-0.0206140000000001
411.3999999999999,-0.0202380000000002
411.6,-0.019449
411.7999999999999,-0.019506
412.0,-0.019965
412.1999999999999,-0.0199990000000001
412.3999999999999,-0.017462
412.6,-0.0157790000000002
412.7999999999999,-0.012078
413.0,-0.0073480000000001
413.1999999999999,-0.0074960000000001
413.3999999999999,-0.009919
413.6,-0.01408
413.7999999999999,-0.01634
414.0,-0.0212810000000001
414.1999999999999,-0.0239580000000001
414.3999999999999,-0.025012
414.6,-0.022626
414.7999999999999,-0.0221150000000001
415.0,-0.0205510000000002
415.1999999999999,-0.0201770000000001
415.3999999999999,-0.017908
415.6,-0.016988
415.7999999999999,-0.0168320000000001
416.0,-0.019246
416.1999999999999,-0.0182500000000001
416.3999999999999,-0.0197740000000001
416.6,-0.0225010000000001
416.7999999999999,-0.024394
417.0,-0.0226490000000001
417.1999999999999,-0.021255
417.3999999999999,-0.0196210000000001
417.6,-0.017414
417.7999999999999,-0.016191
418.0,-0.0178880000000001
418.1999999999999,-0.0203790000000001
418.3999999999999,-0.0231400000000001
418.6,-0.0259660000000001
418.7999999999999,-0.027482
419.0,-0.0281630000000001
419.1999999999999,-0.0276120000000001
419.3999999999999,-0.02818
419.6,-0.024764
419.7999999999999,-0.0223600000000001
420.0,-0.018162
420.1999999999999,-0.0166710000000001
420.3999999999999,-0.013716
420.6,-0.01377
420.7999999999999,-0.0143159999999999
421.0,-0.0144620000000001
421.1999999999999,-0.0141140000000001
421.3999999999999,-0.0158409999999999
421.6,-0.0161280000000001
421.7999999999999,-0.0153690000000001
422.0,-0.0160010000000001
422.1999999999999,-0.015239
422.3999999999999,-0.0120610000000001
422.6,-0.011058
422.7999999999999,-0.0115629999999999
423.0,-0.0122410000000001
423.1999999999999,-0.0139770000000001
423.3999999999999,-0.018002
423.6,-0.0209719999999999
423.7999999999999,-0.0229780000000001
424.0,-0.0241170000000001
424.1999999999999,-0.0236830000000001
424.3999999999999,-0.021381
424.6,-0.0194510000000001
424.7999999999999,-0.017843
425.0,-0.0174750000000001
425.1999999999999,-0.0164980000000001
425.3999999999999,-0.0164360000000001
425.6,-0.0170940000000001
425.7999999999999,-0.016602
426.0,-0.0173800000000001
426.1999999999999,-0.0197340000000001
426.3999999999999,-0.0201420000000001
426.6,-0.019033
426.7999999999999,-0.020334
427.0,-0.0209700000000001
427.1999999999999,-0.0208210000000002
427.3999999999999,-0.020045
427.6,-0.0214660000000002
427.7999999999999,-0.0228160000000001
428.0,-0.0231160000000001
428.1999999999999,-0.024515
428.3999999999999,-0.025943
428.6,-0.0256660000000001
428.7999999999999,-0.023034
429.0,-0.018062
429.1999999999999,-0.0130780000000001
429.3999999999999,-0.011573
429.6,-0.010628
429.7999999999999,-0.010709
430.0,-0.01404
430.1999999999999,-0.0177500000000001
430.3999999999999,-0.019724
430.6,-0.0221390000000001
430.7999999999999,-0.022785
431.0,-0.0223760000000001
431.1999999999999,-0.0211970000000001
431.3999999999999,-0.019543
431.6,-0.016429
431.7999999999999,-0.0146050000000002
432.0,-0.0152150000000002
432.1999999999999,-0.016647
432.3999999999999,-0.0181280000000001
432.6,-0.0198980000000001
432.7999999999999,-0.0224820000000001
433.0,-0.023649
433.1999999999999,-0.024572
433.3999999999999,-0.023476
433.6,-0.0240680000000002
433.7999999999999,-0.0251210000000001
434.0,-0.0229719999999999
434.1999999999999,-0.019336
434.3999999999999,-0.017462
434.6,-0.0147559999999999
434.7999999999999,-0.011057
435.0,-0.0104920000000001
435.1999999999999,-0.0086730000000001
435.3999999999999,-0.0099010000000001
435.6,-0.012378
435.7999999999999,-0.013254
436.0,-0.0135200000000001
436.1999999999999,-0.0172940000000001
436.3999999999999,-0.019487
436.6,-0.0208060000000001
436.7999999999999,-0.023355
437.0,-0.027025
437.1999999999999,-0.0276990000000001
437.3999999999999,-0.027142
437.6,-0.024092
437.7999999999999,-0.0204250000000001
438.0,-0.015632
438.1999999999999,-0.015638
438.3999999999999,-0.0178500000000001
438.6,-0.020939
438.7999999999999,-0.0251240000000001
439.0,-0.030647
439.1999999999999,-0.0321740000000001
439.3999999999999,-0.031663
439.6,-0.0310270000000001
439.7999999999999,-0.030126
440.0,-0.0272000000000001
440.1999999999999,-0.025293
440.3999999999999,-0.0238520000000002
440.6,-0.0229910000000002
440.7999999999999,-0.022494
441.0,-0.0236640000000001
441.1999999999999,-0.023983
441.3999999999999,-0.0247840000000001
441.6,-0.025689
441.7999999999999,-0.0272350000000001
442.0,-0.0253260000000001
442.1999999999999,-0.023203
442.3999999999999,-0.0221600000000001
442.6,-0.0225520000000001
442.7999999999999,-0.021271
443.0,-0.0191810000000001
443.1999999999999,-0.018364
443.3999999999999,-0.016628
443.6,-0.014942
443.7999999999999,-0.0141520000000001
444.0,-0.0172039999999999
444.1999999999999,-0.0195310000000001
444.3999999999999,-0.020777
444.6,-0.020232
444.7999999999999,-0.021635
445.0,-0.022372
445.1999999999999,-0.0222980000000001
445.3999999999999,-0.0232000000000001
445.6,-0.025965
445.7999999999999,-0.0243920000000001
446.0,-0.0220310000000001
446.1999999999999,-0.0219060000000002
446.3999999999999,-0.0189370000000002
446.6,-0.0143740000000001
446.7999999999999,-0.0140220000000002
447.0,-0.0161250000000001
447.1999999999999,-0.0169529999999999
447.3999999999999,-0.020944
447.6,-0.0257530000000001
447.7999999999999,-0.028342
448.0,-0.0277360000000002
448.1999999999999,-0.0263380000000001
448.3999999999999,-0.023406
448.6,-0.02211
448.7999999999999,-0.0230830000000001
449.0,-0.0240029999999999
449.1999999999999,-0.024872
449.3999999999999,-0.024626
449.6,-0.0230320000000001
449.7999999999999,-0.021033
450.0,-0.0225080000000001
450.1999999999999,-0.0233240000000001
450.3999999999999,-0.026162
450.6,-0.028208
450.7999999999999,-0.0294290000000001
451.0,-0.0279740000000001
451.1999999999999,-0.0286790000000001
451.3999999999999,-0.0296279999999999
451.6,-0.031028
451.7999999999999,-0.030111
452.0,-0.025692
452.1999999999999,-0.020683
452.3999999999999,-0.018299
452.6,-0.0181660000000001
452.7999999999999,-0.017597
453.0,-0.0206540000000001
453.1999999999999,-0.024145
453.3999999999999,-0.0246490000000001
453.6,-0.022386
453.7999999999999,-0.022645
454.0,-0.0249130000000001
454.1999999999999,-0.0250180000000002
454.3999999999999,-0.0234390000000002
454.6,-0.0198660000000001
454.7999999999999,-0.0169720000000002
455.0,-0.0154040000000001
455.1999999999999,-0.014561
455.3999999999999,-0.016995
455.6,-0.021268
455.7999999999999,-0.024205
456.0,-0.023471
456.1999999999999,-0.0239580000000001
456.3999999999999,-0.024156
456.6,-0.0257280000000001
456.7999999999999,-0.0276720000000001
457.0,-0.0294860000000001
457.1999999999999,-0.0301930000000001
457.3999999999999,-0.030353
457.6,-0.0283010000000001
457.7999999999999,-0.0259960000000001
458.0,-0.024288
458.1999999999999,-0.024148
458.3999999999999,-0.0229030000000001
458.6,-0.0218200000000001
458.7999999999999,-0.022232
459.0,-0.023217
459.1999999999999,-0.0235580000000001
459.3999999999999,-0.0236200000000001
459.6,-0.0238930000000001
459.7999999999999,-0.0242300000000001
460.0,-0.0248700000000001
460.1999999999999,-0.0259150000000001
460.3999999999999,-0.0253890000000001
460.6,-0.02692
460.7999999999999,-0.025705
461.0,-0.0241680000000001
461.1999999999999,-0.0226890000000001
461.3999999999999,-0.0244630000000001
461.6,-0.026925
461.7999999999999,-0.0296820000000002
462.0,-0.03153
462.1999999999999,-0.032297
462.3999999999999,-0.032192
462.6,-0.0286840000000001
462.7999999999999,-0.0257720000000001
463.0,-0.023023
463.1999999999999,-0.021203
463.3999999999999,-0.0197230000000001
463.6,-0.0216709999999999
463.7999999999999,-0.024399
464.0,-0.0253770000000002
464.1999999999999,-0.02496
464.3999999999999,-0.0255180000000001
464.6,-0.0259180000000001
464.7999999999999,-0.0248760000000001
465.0,-0.026305
465.1999999999999,-0.0283300000000001
465.3999999999999,-0.0291000000000001
465.6,-0.027938
465.7999999999999,-0.0266270000000001
466.0,-0.0237770000000001
466.1999999999999,-0.021992
466.3999999999999,-0.0226399999999999
466.6,-0.0223790000000001
466.7999999999999,-0.0236
467.0,-0.025608
467.1999999999999,-0.026337
467.3999999999999,-0.0231149999999999
467.6,-0.020456
467.7999999999999,-0.0160919999999999
468.0,-0.014035
468.1999999999999,-0.0127220000000001
468.3999999999999,-0.0150460000000001
468.6,-0.018043
468.7999999999999,-0.021236
469.0,-0.020372
469.1999999999999,-0.0225509999999999
469.3999999999999,-0.0238500000000001
469.6,-0.02536
469.7999999999999,-0.027422
470.0,-0.0299690000000001
470.1999999999999,-0.028702
470.3999999999999,-0.0261090000000001
470.6,-0.0241550000000001
470.7999999999999,-0.021641
471.0,-0.0234430000000001
471.1999999999999,-0.027881
471.3999999999999,-0.0310529999999999
471.6,-0.032623
471.7999999999999,-0.0339610000000001
472.0,-0.0313830000000001
472.1999999999999,-0.0272590000000001
472.3999999999999,-0.0242170000000001
472.6,-0.0217960000000001
472.7999999999999,-0.020442
473.0,-0.020885
473.1999999999999,-0.0215530000000001
473.3999999999999,-0.022723
473.6,-0.0249940000000001
473.7999999999999,-0.0264120000000001
474.0,-0.0261680000000001
474.1999999999999,-0.0260420000000001
474.3999999999999,-0.025973
474.6,-0.0240690000000001
474.7999999999999,-0.0239170000000001
475.0,-0.024486
475.1999999999999,-0.0240170000000001
475.3999999999999,-0.024129
475.6,-0.025339
475.7999999999999,-0.025198
476.0,-0.0258660000000001
476.1999999999999,-0.027266
476.3999999999999,-0.027652
476.6,-0.027149
476.7999999999999,-0.0286240000000002
477.0,-0.029096
477.1999999999999,-0.0285870000000001
477.3999999999999,-0.029994
477.6,-0.033579
477.7999999999999,-0.0347460000000001
478.0,-0.03519
478.1999999999999,-0.0364570000000001
478.3999999999999,-0.0353810000000001
478.6,-0.033344
478.7999999999999,-0.0299720000000001
479.0,-0.027427
479.1999999999999,-0.0265239999999999
479.3999999999999,-0.0256050000000001
479.6,-0.022688
479.7999999999999,-0.024664
480.0,-0.027562
480.1999999999999,-0.0292210000000001
480.3999999999999,-0.029903
480.6,-0.0315469999999999
480.7999999999999,-0.0300900000000001
481.0,-0.0279200000000001
481.1999999999999,-0.024253
481.3999999999999,-0.02194
481.6,-0.0210879999999999
481.7999999999999,-0.0205030000000001
482.0,-0.0226650000000001
482.1999999999999,-0.025236
482.3999999999999,-0.027862
482.6,-0.0281299999999999
482.7999999999999,-0.0290700000000001
483.0,-0.0272510000000001
483.1999999999999,-0.026332
483.3999999999999,-0.0251990000000001
483.6,-0.0249290000000002
483.7999999999999,-0.0249220000000001
484.0,-0.0246490000000001
484.1999999999999,-0.0267220000000001
484.3999999999999,-0.028118
484.6,-0.0302250000000001
484.7999999999999,-0.0302930000000001
485.0,-0.0313350000000001
485.1999999999999,-0.030942
485.3999999999999,-0.033079
485.6,-0.0333350000000001
485.7999999999999,-0.0341870000000001
486.0,-0.034856
486.1999999999999,-0.035249
486.3999999999999,-0.0338450000000001
486.6,-0.0342470000000001
486.7999999999999,-0.0359
487.0,-0.034532
487.1999999999999,-0.03224
487.3999999999999,-0.030591
487.6,-0.0283920000000001
487.7999999999999,-0.0257820000000001
488.0,-0.027025
488.1999999999999,-0.026515
488.3999999999999,-0.024515
488.6,-0.0240330000000001
488.7999999999999,-0.0253430000000001
489.0,-0.0254100000000001
489.1999999999999,-0.026539
489.3999999999999,-0.0270100000000002
489.6,-0.0275560000000001
489.7999999999999,-0.02407
490.0,-0.0212320000000001
490.1999999999999,-0.0219139999999999
490.3999999999999,-0.0243870000000001
490.6,-0.0255120000000002
490.7999999999999,-0.0266760000000001
491.0,-0.0283030000000001
491.1999999999999,-0.0278249999999999
491.3999999999999,-0.0277709999999999
491.6,-0.0266060000000001
491.7999999999999,-0.0287140000000001
492.0,-0.0314590000000001
492.1999999999999,-0.0336780000000001
492.3999999999999,-0.033201
492.6,-0.032782
492.7999999999999,-0.031692
493.0,-0.031352
493.1999999999999,-0.02936
493.3999999999999,-0.026683
493.6,-0.024256
493.7999999999999,-0.021009
494.0,-0.0191110000000001
494.1999999999999,-0.0224330000000001
494.3999999999999,-0.0265430000000002
494.6,-0.0302170000000001
494.7999999999999,-0.0324010000000001
495.0,-0.0307170000000001
495.1999999999999,-0.0261680000000001
495.3999999999999,-0.0228330000000001
495.6,-0.0205700000000002
495.7999999999999,-0.0209490000000001
496.0,-0.022882
496.1999999999999,-0.0228160000000001
496.3999999999999,-0.0231320000000001
496.6,-0.0232080000000001
496.7999999999999,-0.0245920000000001
497.0,-0.024513
497.1999999999999,-0.026601
497.3999999999999,-0.0282980000000001
497.6,-0.029727
497.7999999999999,-0.0297740000000001
498.0,-0.0313800000000001
498.1999999999999,-0.0306090000000001
498.3999999999999,-0.030256
498.6,-0.0310840000000001
498.7999999999999,-0.0303390000000001
499.0,-0.0282770000000001
499.1999999999999,-0.028891
499.3999999999999,-0.0291240000000001
499.6,-0.028818
499.7999999999999,-0.0296750000000001
500.0,-0.031347
500.1999999999999,-0.030316
500.3999999999999,-0.028064
500.6,-0.026677
500.7999999999999,-0.025462
501.0,-0.0263710000000001
501.1999999999999,-0.028647
501.3999999999999,-0.030342
501.6,-0.0316150000000001
501.7999999999999,-0.032024
502.0,-0.0304740000000001
502.1999999999999,-0.0278690000000001
502.3999999999999,-0.027776
502.6,-0.027144
502.7999999999999,-0.0256370000000001
503.0,-0.024971
503.1999999999999,-0.026269
503.3999999999999,-0.0273990000000001
503.6,-0.0289400000000001
503.7999999999999,-0.0319960000000001
504.0,-0.033786
504.1999999999999,-0.031339
504.3999999999999,-0.0295240000000001
504.6,-0.026307
504.7999999999999,-0.0249700000000001
505.0,-0.021894
505.1999999999999,-0.0236420000000001
505.3999999999999,-0.0253260000000001
505.6,-0.0283920000000001
505.7999999999999,-0.02864
506.0,-0.0305870000000001
506.1999999999999,-0.030005
506.3999999999999,-0.028623
506.6,-0.026305
506.7999999999999,-0.023857
507.0,-0.0225710000000001
507.1999999999999,-0.0251860000000001
507.3999999999999,-0.029214
507.6,-0.032334
507.7999999999999,-0.035161
508.0,-0.0367410000000001
508.1999999999999,-0.0357230000000001
508.3999999999999,-0.0338010000000001
508.6,-0.0320489999999999
508.7999999999999,-0.031927
509.0,-0.0303570000000001
509.1999999999998,-0.030124
509.3999999999999,-0.0305710000000001
509.5999999999999,-0.032667
509.8,-0.0343870000000001
510.0,-0.0368440000000001
510.1999999999998,-0.035169
510.3999999999999,-0.03295
510.5999999999999,-0.03068
510.8,-0.030537
511.0,-0.0298990000000001
511.1999999999998,-0.030396
511.3999999999999,-0.030343
511.5999999999999,-0.030334
511.8,-0.02767
512.0,-0.027015
512.1999999999998,-0.0296400000000001
512.3999999999999,-0.031041
512.5999999999999,-0.0318470000000001
512.8,-0.033427
513.0,-0.0340870000000002
513.1999999999998,-0.032297
513.3999999999999,-0.032804
513.5999999999999,-0.03339
513.8,-0.032224
514.0,-0.03112
514.1999999999998,-0.031346
514.3999999999999,-0.030896
514.5999999999999,-0.030054
514.8,-0.030844
515.0,-0.0311730000000001
515.1999999999998,-0.03149
515.3999999999999,-0.03227
515.5999999999999,-0.031579
515.8,-0.0303030000000001
516.0,-0.0306080000000001
516.1999999999998,-0.030558
516.3999999999999,-0.030477
516.5999999999999,-0.032175
516.8,-0.0317670000000001
517.0,-0.0325429999999999
517.1999999999998,-0.035006
517.3999999999999,-0.0344300000000001
517.5999999999999,-0.03298
517.8,-0.0346920000000001
518.0,-0.0350370000000002
518.1999999999998,-0.0322230000000001
518.3999999999999,-0.0307110000000001
518.5999999999999,-0.029573
518.8,-0.031171
519.0,-0.031757
519.1999999999998,-0.0320960000000001
519.3999999999999,-0.034064
519.5999999999999,-0.0363040000000001
519.8,-0.0360180000000001
520.0,-0.0340489999999999
520.1999999999998,-0.03567
520.3999999999999,-0.0375450000000001
520.5999999999999,-0.037439
520.8,-0.0369160000000001
521.0,-0.0380230000000001
521.1999999999998,-0.036936
521.3999999999999,-0.0357120000000001
521.5999999999999,-0.0382090000000001
521.8,-0.0390099999999999
522.0,-0.039231
522.1999999999998,-0.0390719999999999
522.3999999999999,-0.036937
522.5999999999999,-0.031905
522.8,-0.0287730000000001
523.0,-0.0251540000000001
523.1999999999998,-0.0240770000000001
523.3999999999999,-0.023511
523.5999999999999,-0.0231339999999999
523.8,-0.0218180000000001
524.0,-0.0228369999999999
524.1999999999998,-0.024431
524.3999999999999,-0.0264280000000001
524.5999999999999,-0.030869
524.8,-0.031225
525.0,-0.031128
525.1999999999998,-0.029034
525.3999999999999,-0.029795
525.5999999999999,-0.0280260000000001
525.8,-0.0291270000000001
526.0,-0.030145
526.1999999999998,-0.0295770000000001
526.3999999999999,-0.02983
526.5999999999999,-0.031371
526.8,-0.031025
527.0,-0.0308650000000001
527.1999999999998,-0.03234
527.3999999999999,-0.0310989999999999
527.5999999999999,-0.030002
527.8,-0.032656
528.0,-0.031789
528.1999999999998,-0.0315940000000001
528.3999999999999,-0.030701
528.5999999999999,-0.0301660000000001
528.8,-0.0281280000000001
529.0,-0.0285490000000001
529.1999999999998,-0.026736
529.3999999999999,-0.0252370000000001
529.5999999999999,-0.0248559999999999
529.8,-0.0255910000000001
530.0,-0.027179
530.1999999999998,-0.03062
530.3999999999999,-0.0339930000000001
530.5999999999999,-0.0342230000000001
530.8,-0.034019
531.0,-0.0326460000000001
531.1999999999998,-0.030051
531.3999999999999,-0.0263010000000001
531.5999999999999,-0.0252340000000002
531.8,-0.0257830000000001
532.0,-0.0279120000000001
532.1999999999998,-0.031152
532.3999999999999,-0.034685
532.5999999999999,-0.0359770000000001
532.8,-0.0364520000000001
533.0,-0.038658
533.1999999999998,-0.0378390000000001
533.3999999999999,-0.0393290000000001
533.5999999999999,-0.039001
533.8,-0.0375020000000001
534.0,-0.0311970000000001
534.1999999999998,-0.027562
534.3999999999999,-0.023894
534.5999999999999,-0.023778
534.8,-0.025932
535.0,-0.030952
535.1999999999998,-0.035139
535.3999999999999,-0.037053
535.5999999999999,-0.035309
535.8,-0.0321029999999999
536.0,-0.029508
536.1999999999998,-0.029781
536.3999999999999,-0.0318660000000001
536.5999999999999,-0.0354210000000001
536.8,-0.037835
537.0,-0.038656
537.1999999999998,-0.0365110000000001
537.3999999999999,-0.0334340000000001
537.5999999999999,-0.0332940000000001
537.8,-0.034118
538.0,-0.0354080000000001
538.1999999999998,-0.0347060000000001
538.3999999999999,-0.035495
538.5999999999999,-0.032955
538.8,-0.0329220000000001
539.0,-0.0315970000000001
539.1999999999998,-0.0312610000000002
539.3999999999999,-0.028386
539.5999999999999,-0.0300790000000001
539.8,-0.030227
540.0,-0.0315070000000001
540.1999999999998,-0.0323250000000001
540.3999999999999,-0.0337200000000001
540.5999999999999,-0.0312990000000001
540.8,-0.0304000000000002
541.0,-0.0291570000000001
541.1999999999998,-0.028286
541.3999999999999,-0.0287920000000001
541.5999999999999,-0.0303410000000001
541.8,-0.0294100000000001
542.0,-0.028483
542.1999999999998,-0.028369
542.3999999999999,-0.028145
542.5999999999999,-0.0270830000000001
542.8,-0.0280960000000001
543.0,-0.0302930000000001
543.1999999999998,-0.0340230000000001
543.3999999999999,-0.0385090000000001
543.5999999999999,-0.042137
543.8,-0.0432190000000001
544.0,-0.0419880000000001
544.1999999999998,-0.039417
544.3999999999999,-0.0351799999999999
544.5999999999999,-0.0325250000000001
544.8,-0.030267
545.0,-0.0296750000000001
545.1999999999998,-0.031557
545.3999999999999,-0.0326430000000002
545.5999999999999,-0.0338249999999999
545.8,-0.0365190000000001
546.0,-0.037868
546.1999999999998,-0.035813
546.3999999999999,-0.0357070000000001
546.5999999999999,-0.0372290000000001
546.8,-0.0384920000000001
547.0,-0.0398390000000001
547.1999999999998,-0.0417359999999999
547.3999999999999,-0.042054
547.5999999999999,-0.0394230000000002
547.8,-0.037053
548.0,-0.0354240000000001
548.1999999999998,-0.0352530000000002
548.3999999999999,-0.034909
548.5999999999999,-0.0373800000000001
548.8,-0.0388220000000001
549.0,-0.0397670000000001
549.1999999999998,-0.038928
549.3999999999999,-0.0384740000000001
549.5999999999999,-0.036578
549.8,-0.0334590000000001
550.0,-0.033743
550.1999999999998,-0.0385630000000001
550.3999999999999,-0.0424280000000001
550.5999999999999,-0.0448780000000001
550.8,-0.04742
551.0,-0.045501
551.1999999999998,-0.040116
551.3999999999999,-0.036864
551.5999999999999,-0.034348
551.8,-0.032043
552.0,-0.033225
552.1999999999998,-0.0349780000000001
552.3999999999999,-0.0344360000000001
552.5999999999999,-0.036016
552.8,-0.0375930000000002
553.0,-0.0367950000000001
553.1999999999998,-0.0350240000000001
553.3999999999999,-0.0347000000000001
553.5999999999999,-0.032375
553.8,-0.033738
554.0,-0.0356200000000002
554.1999999999998,-0.0372890000000001
554.3999999999999,-0.036796
554.5999999999999,-0.0358990000000001
554.8,-0.0331320000000001
555.0,-0.031454
555.1999999999998,-0.0306380000000001
555.3999999999999,-0.0325060000000001
555.5999999999999,-0.036742
555.8,-0.0400500000000001
556.0,-0.0404410000000001
556.1999999999998,-0.0403200000000001
556.3999999999999,-0.0403380000000002
556.5999999999999,-0.038362
556.8,-0.0368490000000001
557.0,-0.037603
557.1999999999998,-0.0389829999999999
557.3999999999999,-0.040561
557.5999999999999,-0.042316
557.8,-0.04397
558.0,-0.043061
558.1999999999998,-0.042143
558.3999999999999,-0.039679
558.5999999999999,-0.0372640000000001
558.8,-0.034213
559.0,-0.0337100000000001
559.1999999999998,-0.0326440000000001
559.3999999999999,-0.0340900000000001
559.5999999999999,-0.0372990000000001
559.8,-0.03939
560.0,-0.0392240000000001
560.1999999999998,-0.0393180000000001
560.3999999999999,-0.0390020000000002
560.5999999999999,-0.0398580000000001
560.8,-0.0404680000000001
561.0,-0.0422950000000001
561.1999999999998,-0.0424600000000001
561.3999999999999,-0.040896
561.5999999999999,-0.0362850000000001
561.8,-0.034572
562.0,-0.0324030000000001
562.1999999999998,-0.0292640000000001
562.3999999999999,-0.029238
562.5999999999999,-0.0314670000000001
562.8,-0.0325200000000001
563.0,-0.0301839999999999
563.1999999999998,-0.0310300000000001
563.3999999999999,-0.029168
563.5999999999999,-0.027943
563.8,-0.026461
564.0,-0.02862
564.1999999999998,-0.030267
564.3999999999999,-0.0312400000000001
564.5999999999999,-0.0304200000000001
564.8,-0.031006
565.0,-0.0323980000000001
565.1999999999998,-0.03332
565.3999999999999,-0.0351100000000002
565.5999999999999,-0.0353190000000001
565.8,-0.0351050000000001
566.0,-0.0355580000000002
566.1999999999998,-0.0345350000000002
566.3999999999999,-0.033754
566.5999999999999,-0.0354180000000001
566.8,-0.0360720000000001
567.0,-0.0343850000000001
567.1999999999998,-0.034963
567.3999999999999,-0.035595
567.5999999999999,-0.034548
567.8,-0.033433
568.0,-0.0349680000000001
568.1999999999998,-0.038224
568.3999999999999,-0.0393890000000001
568.5999999999999,-0.0403680000000001
568.8,-0.0406760000000001
569.0,-0.040043
569.1999999999998,-0.037247
569.3999999999999,-0.037843
569.5999999999999,-0.0380360000000001
569.8,-0.0382960000000001
570.0,-0.037295
570.1999999999998,-0.0363330000000001
570.3999999999999,-0.033643
570.5999999999999,-0.033708
570.8,-0.036127
570.9999999999998,-0.036273
571.1999999999998,-0.035911
571.3999999999999,-0.0335780000000001
571.5999999999999,-0.0309560000000002
571.8,-0.0281919999999999
571.9999999999998,-0.0294830000000001
572.1999999999998,-0.0317880000000001
572.3999999999999,-0.035862
572.5999999999999,-0.0366490000000001
572.8,-0.0349000000000001
572.9999999999998,-0.0335880000000001
573.1999999999998,-0.0342090000000001
573.3999999999999,-0.0341790000000001
573.5999999999999,-0.0357910000000001
573.8,-0.039546
573.9999999999998,-0.040124
574.1999999999998,-0.0394990000000001
574.3999999999999,-0.039838
574.5999999999999,-0.0418439999999999
574.8,-0.0417260000000001
574.9999999999998,-0.0425140000000001
575.1999999999998,-0.042183
575.3999999999999,-0.0412510000000001
575.5999999999999,-0.0390780000000001
575.8,-0.036901
575.9999999999998,-0.0355990000000001
576.1999999999998,-0.034499
576.3999999999999,-0.032653
576.5999999999999,-0.0306810000000001
576.8,-0.0315450000000001
576.9999999999998,-0.033976
577.1999999999998,-0.0358530000000001
577.3999999999999,-0.0381090000000001
577.5999999999999,-0.039973
577.8,-0.0389670000000001
577.9999999999998,-0.037471
578.1999999999998,-0.035762
578.3999999999999,-0.035109
578.5999999999999,-0.0357960000000001
578.8,-0.037482
578.9999999999998,-0.036507
579.1999999999998,-0.0351540000000001
579.3999999999999,-0.033921
579.5999999999999,-0.030693
579.8,-0.0286380000000001
579.9999999999998,-0.0305170000000001
580.1999999999998,-0.034048
580.3999999999999,-0.0377180000000001
580.5999999999999,-0.0412380000000001
580.8,-0.042942
580.9999999999998,-0.0421060000000002
581.1999999999998,-0.038955
581.3999999999999,-0.0351799999999999
581.5999999999999,-0.032688
581.8,-0.0330430000000001
581.9999999999998,-0.0350130000000001
582.1999999999998,-0.0379640000000001
582.3999999999999,-0.040011
582.5999999999999,-0.041452
582.8,-0.0403420000000001
582.9999999999998,-0.0386600000000001
583.1999999999998,-0.0369559999999999
583.3999999999999,-0.0351380000000001
583.5999999999999,-0.033117
583.8,-0.0318500000000001
583.9999999999998,-0.0316009999999999
584.1999999999998,-0.0343600000000001
584.3999999999999,-0.0370830000000002
584.5999999999999,-0.0390640000000002
584.8,-0.0389540000000001
584.9999999999998,-0.038999
585.1999999999998,-0.036388
585.3999999999999,-0.0353100000000001
585.5999999999999,-0.0380740000000001
585.8,-0.0411450000000002
585.9999999999998,-0.040639
586.1999999999998,-0.041201
586.3999999999999,-0.0399610000000001
586.5999999999999,-0.037174
586.8,-0.0364170000000001
586.9999999999998,-0.0406730000000001
587.1999999999998,-0.042111
587.3999999999999,-0.0438750000000001
587.5999999999999,-0.0430639999999999
587.8,-0.0415700000000001
587.9999999999998,-0.039938
588.1999999999998,-0.039868
588.3999999999999,-0.040702
588.5999999999999,-0.0424060000000001
588.8,-0.0461790000000001
588.9999999999998,-0.0458610000000001
589.1999999999998,-0.0463790000000001
589.3999999999999,-0.044278
589.5999999999999,-0.04177
589.8,-0.037195
589.9999999999998,-0.0358830000000001
590.1999999999998,-0.032728
590.3999999999999,-0.0328780000000001
590.5999999999999,-0.0346630000000001
590.8,-0.037824
590.9999999999998,-0.039652
591.1999999999998,-0.0406600000000001
591.3999999999999,-0.038459
591.5999999999999,-0.0372000000000001
591.8,-0.0358720000000001
591.9999999999998,-0.032297
592.1999999999998,-0.0315120000000002
592.3999999999999,-0.033962
592.5999999999999,-0.034863
592.8,-0.0352650000000001
592.9999999999998,-0.0377580000000001
593.1999999999998,-0.040769
593.3999999999999,-0.0415940000000001
593.5999999999999,-0.043681
593.8,-0.0438340000000001
593.9999999999998,-0.0425200000000001
594.1999999999998,-0.040899
594.3999999999999,-0.0407270000000001
594.5999999999999,-0.037781
594.8,-0.0370760000000001
594.9999999999998,-0.0391750000000001
595.1999999999998,-0.0401150000000001
595.3999999999999,-0.0403500000000001
595.5999999999999,-0.0433700000000001
595.8,-0.0452380000000001
595.9999999999998,-0.0448300000000001
596.1999999999998,-0.0438550000000002
