Time (s),Shift (nm)
0.0,0.0
0.1999999999999886,0.0003269999999999
0.4000000000000341,-0.0001059999999999
0.6000000000000227,0.0003299999999999
0.8000000000000114,0.0008349999999999
1.0,0.0004409999999999
1.1999999999999886,0.0002569999999999
1.400000000000034,0.0014749999999998
1.6000000000000227,0.0033799999999999
1.8000000000000114,0.003924
2.0,0.0059689999999998
2.1999999999999886,0.0075099999999999
2.400000000000034,0.007511
2.6000000000000227,0.0062809999999999
2.800000000000012,0.006469
3.0,0.006377
3.1999999999999886,0.0063159999999999
3.400000000000034,0.0057439999999999
3.6000000000000227,0.0048669999999999
3.8000000000000114,0.0046399999999999
4.0,0.003805
4.199999999999989,0.0034940000000001
4.400000000000034,0.00448
4.600000000000023,0.006771
4.800000000000011,0.008386
5.0,0.0094069999999999
5.199999999999989,0.007751
5.400000000000034,0.005911
5.600000000000023,0.00329
5.800000000000011,0.002151
6.0,0.001163
6.199999999999989,0.0025789999999998
6.400000000000034,0.0039109999999999
6.600000000000023,0.006353
6.800000000000011,0.0061199999999999
7.0,0.007546
7.199999999999989,0.008817
7.400000000000034,0.008037
7.600000000000023,0.0079679999999999
7.800000000000011,0.008968
8.0,0.0106159999999999
8.199999999999989,0.009673
8.400000000000034,0.0098899999999999
8.600000000000023,0.0085090000000001
8.800000000000011,0.009166
9.0,0.0082029999999999
9.199999999999989,0.0088239999999999
9.400000000000034,0.0079309999999999
9.600000000000025,0.0065269999999999
9.800000000000011,0.003594
10.0,0.0022159999999999
10.199999999999989,0.0025249999999998
10.400000000000034,0.0048449999999999
10.600000000000025,0.0093160000000001
10.800000000000011,0.0133259999999999
11.0,0.014866
11.199999999999989,0.013387
11.400000000000034,0.0113430000000001
11.600000000000025,0.0079679999999999
11.800000000000011,0.005794
12.0,0.0024839999999999
12.199999999999989,0.0028719999999999
12.400000000000034,0.0052959999999999
12.600000000000025,0.007659
12.800000000000011,0.0084599999999999
13.0,0.0113399999999999
13.199999999999989,0.0124299999999999
13.400000000000034,0.010928
13.600000000000025,0.0085299999999999
13.800000000000011,0.005919
14.0,0.005794
14.199999999999989,0.005541
14.400000000000034,0.006645
14.600000000000025,0.007954
14.800000000000011,0.0104439999999998
15.0,0.0109799999999999
15.199999999999989,0.0118899999999999
15.400000000000034,0.0113469999999999
15.600000000000025,0.010566
15.800000000000011,0.010037
16.0,0.0064729999999999
16.19999999999999,0.0034339999999999
16.400000000000034,0.0025599999999998
16.600000000000023,0.0025619999999999
16.80000000000001,0.0014089999999999
17.0,0.002942
17.19999999999999,0.0042199999999998
17.400000000000034,0.00482
17.600000000000023,0.0041899999999999
17.80000000000001,0.0036599999999999
18.0,0.0020649999999999
18.19999999999999,0.000456
18.400000000000038,-0.0007079999999999
18.600000000000023,-9.999999999177334e-07
18.80000000000001,4.599999999999049e-05
19.0,0.0014359999999999
19.19999999999999,0.0023509999999999
19.400000000000038,0.003897
19.600000000000023,0.0046600000000001
19.80000000000001,0.008054
20.0,0.0103349999999999
20.19999999999999,0.0107129999999999
20.400000000000038,0.0092449999999999
20.600000000000023,0.0072529999999999
20.80000000000001,0.0050779999999999
21.0,0.0045729999999999
21.19999999999999,0.0046489999999999
21.400000000000038,0.005859
21.600000000000023,0.007765
21.80000000000001,0.0077409999999999
22.0,0.0063789999999999
22.19999999999999,0.0055579999999999
22.400000000000038,0.005524
22.600000000000023,0.0045029999999999
22.80000000000001,0.003403
23.0,0.002742
23.19999999999999,0.0027209999999999
23.400000000000038,0.003201
23.600000000000023,0.003784
23.80000000000001,0.00408
24.0,0.0030809999999998
24.19999999999999,0.002642
24.400000000000038,0.0020249999999999
24.600000000000023,0.0024109999999999
24.80000000000001,0.003346
25.0,0.00533
25.19999999999999,0.0061059999999999
25.400000000000038,0.0066569999999999
25.600000000000023,0.005749
25.80000000000001,0.0063359999999998
26.0,0.007897
26.19999999999999,0.010521
26.400000000000038,0.0117709999999999
26.600000000000023,0.014442
26.80000000000001,0.0148919999999999
27.0,0.0132079999999998
27.19999999999999,0.0113739999999999
27.400000000000038,0.0102869999999999
27.600000000000023,0.007724
27.80000000000001,0.0053859999999998
28.0,0.006231
28.19999999999999,0.007343
28.400000000000038,0.007217
28.600000000000023,0.006701
28.80000000000001,0.0069239999999999
29.0,0.005719
29.19999999999999,0.0054959999999999
29.400000000000038,0.0063779999999999
29.600000000000023,0.006755
29.80000000000001,0.0051619999999998
30.0,0.0031540000000001
30.19999999999999,0.0016119999999999
30.400000000000038,0.000841
30.600000000000023,0.001859
30.80000000000001,0.0050019999999999
31.0,0.009951
31.19999999999999,0.0135609999999999
31.400000000000038,0.0150809999999999
31.600000000000023,0.0157
31.80000000000001,0.0164539999999999
32.0,0.0137149999999999
32.19999999999999,0.01106
32.400000000000034,0.0078929999999999
32.60000000000002,0.006326
32.80000000000001,0.003354
33.0,0.003252
33.19999999999999,0.0030159999999999
33.400000000000034,0.0046489999999999
33.60000000000002,0.0046459999999999
33.80000000000001,0.003954
34.0,0.002679
34.19999999999999,0.0028829999999999
34.400000000000034,0.002482
34.60000000000002,0.002526
34.80000000000001,0.0052849999999999
35.0,0.0057179999999998
35.19999999999999,0.0056119999999999
35.400000000000034,0.004286
35.60000000000002,0.0034659999999999
35.80000000000001,0.002501
36.0,0.002769
36.19999999999999,0.0037979999999999
36.400000000000034,0.0064889999999999
36.60000000000002,0.0100839999999999
36.80000000000001,0.0130459999999998
37.0,0.0173779999999998
37.19999999999999,0.0186409999999999
37.400000000000034,0.018051
37.60000000000002,0.0163059999999999
37.80000000000001,0.0143189999999999
38.0,0.011344
38.19999999999999,0.0085109999999999
38.400000000000034,0.0070479999999999
38.60000000000002,0.005684
38.80000000000001,0.0061759999999999
39.0,0.006583
39.19999999999999,0.0075749999999998
39.400000000000034,0.0074099999999999
39.60000000000002,0.007036
39.80000000000001,0.005371
40.0,0.0038039999999999
40.19999999999999,0.002615
40.400000000000034,0.003818
40.60000000000002,0.007384
40.80000000000001,0.010491
41.0,0.0127399999999999
41.19999999999999,0.0140009999999999
41.400000000000034,0.012628
41.60000000000002,0.009559
41.80000000000001,0.007052
42.0,0.00434
42.19999999999999,0.0041519999999999
42.400000000000034,0.0057659999999999
42.60000000000002,0.0067509999999999
42.80000000000001,0.007308
43.0,0.0093659999999999
43.19999999999999,0.0096499999999999
43.400000000000034,0.0090779999999999
43.60000000000002,0.0080089999999999
43.80000000000001,0.0075549999999999
44.0,0.0070399999999999
44.19999999999999,0.0091609999999999
44.400000000000034,0.0109259999999999
44.60000000000002,0.0127399999999999
44.80000000000001,0.0122489999999999
45.0,0.011387
45.19999999999999,0.0082120000000001
45.400000000000034,0.005087
45.60000000000002,0.001924
45.80000000000001,0.0003599999999999
46.0,0.0004249999999998
46.19999999999999,-0.0006569999999999
46.400000000000034,-0.0007289999999999
46.60000000000002,-0.000636
46.80000000000001,0.0001219999999999
47.0,-0.000253
47.19999999999999,0.0029589999999999
47.400000000000034,0.0055400000000001
47.60000000000002,0.0082310000000001
47.80000000000001,0.00899
48.0,0.0090239999999999
48.19999999999999,0.005109
48.400000000000034,0.0018229999999999
48.60000000000002,0.000693
48.80000000000001,0.00217
49.0,0.0027129999999999
49.19999999999999,0.0036499999999999
49.400000000000034,0.0043439999999999
49.60000000000002,0.004204
49.80000000000001,0.002161
50.0,0.0011749999999999
50.19999999999999,0.0012419999999999
50.400000000000034,0.0013989999999999
50.60000000000002,0.000509
50.80000000000001,0.000231
51.0,0.0006209999999999
51.19999999999999,0.0002379999999999
51.400000000000034,0.0004759999999999
51.60000000000002,0.0021059999999999
51.80000000000001,0.004124
52.0,0.005004
52.19999999999999,0.007373
52.400000000000034,0.008941
52.60000000000002,0.009937
52.80000000000001,0.0103539999999999
53.0,0.011103
53.19999999999999,0.0103379999999999
53.400000000000034,0.0095909999999999
53.60000000000002,0.0063889999999999
53.80000000000001,0.004823
54.0,0.0047319999999999
54.19999999999999,0.0073780000000001
54.400000000000034,0.007435
54.60000000000002,0.009368
54.80000000000001,0.0085429999999999
55.0,0.007908
55.19999999999999,0.00699
55.400000000000034,0.0080150000000001
55.60000000000002,0.0084809999999999
55.80000000000001,0.0088699999999999
56.0,0.009165
56.19999999999999,0.0092159999999998
56.400000000000034,0.0088969999999999
56.60000000000002,0.0085489999999999
56.80000000000001,0.0092499999999999
57.0,0.00834
57.19999999999999,0.005978
57.400000000000034,0.0040659999999999
57.60000000000002,0.0036979999999999
57.80000000000001,0.003109
58.0,0.0009619999999999
58.19999999999999,-0.000502
58.400000000000034,-0.00093
58.60000000000002,-0.0010289999999999
58.80000000000001,9.499999999995624e-05
59.0,0.002018
59.19999999999999,0.0023729999999999
59.400000000000034,0.00251
59.60000000000002,0.0017180000000001
59.80000000000001,-0.00014
60.0,0.0019979999999999
60.19999999999999,0.005668
60.400000000000034,0.0082930000000001
60.60000000000002,0.009354
60.80000000000001,0.009991
61.0,0.0082249999999999
61.19999999999999,0.007068
61.400000000000034,0.0051000000000001
61.60000000000002,0.00509
61.80000000000001,0.0059070000000001
62.00000000000006,0.008617
62.19999999999999,0.008923
62.400000000000034,0.011476
62.599999999999966,0.013854
62.80000000000001,0.0147919999999999
63.00000000000006,0.0120309999999999
63.19999999999999,0.00984
63.400000000000034,0.007811
63.599999999999966,0.0061469999999999
63.80000000000001,0.0042999999999999
64.00000000000006,0.002915
64.19999999999999,0.0016199999999999
64.40000000000003,0.0019249999999999
64.59999999999997,0.001441
64.80000000000001,0.002782
65.00000000000006,0.0048649999999998
65.19999999999999,0.006175
65.40000000000003,0.003986
65.59999999999997,0.0035359999999999
65.80000000000001,0.0031369999999999
66.00000000000006,0.003784
66.19999999999999,0.005009
66.40000000000003,0.0059579999999999
66.59999999999997,0.0074989999999999
66.80000000000001,0.00848
67.00000000000006,0.0083159999999999
67.19999999999999,0.008299
67.40000000000003,0.0109049999999999
67.59999999999997,0.0101809999999999
67.80000000000001,0.009611
68.00000000000006,0.009138
68.19999999999999,0.0091339999999999
68.40000000000003,0.006418
68.59999999999997,0.0038069999999998
68.80000000000001,0.0011039999999999
69.00000000000006,-5.100000000002325e-05
69.19999999999999,-0.0003900000000001
69.40000000000003,0.002455
69.59999999999997,0.0051859999999999
69.80000000000001,0.0085189999999999
70.00000000000006,0.0096879999999999
70.19999999999999,0.008922
70.40000000000003,0.006612
70.59999999999997,0.005913
70.80000000000001,0.003792
71.00000000000006,0.0024569999999999
71.19999999999999,0.002812
71.40000000000003,0.0034879999999999
71.59999999999997,0.0043969999999999
71.80000000000001,0.0049429999999999
72.00000000000006,0.0066299999999999
72.19999999999999,0.009268
72.40000000000003,0.011449
72.59999999999997,0.0112319999999999
72.80000000000001,0.010763
73.00000000000006,0.009227
73.19999999999999,0.0068259999999999
73.40000000000003,0.006693
73.59999999999997,0.0080949999999999
73.80000000000001,0.009155
74.00000000000006,0.008958
74.19999999999999,0.0085329999999999
74.40000000000003,0.007355
74.59999999999997,0.0057359999999999
74.80000000000001,0.0059569999999999
75.00000000000006,0.006501
75.19999999999999,0.005724
75.40000000000003,0.0029909999999999
75.59999999999997,0.002048
75.80000000000001,0.001255
76.00000000000006,0.001479
76.19999999999999,0.0028319999999999
76.40000000000003,0.005711
76.59999999999997,0.0069859999999999
76.80000000000001,0.00705
77.00000000000006,0.005589
77.19999999999999,0.0051509999999999
77.40000000000003,0.0042819999999998
77.59999999999997,0.0036059999999999
77.80000000000001,0.0028319999999999
78.00000000000006,0.0037389999999999
78.19999999999999,0.003711
78.40000000000003,0.0054259999999999
78.59999999999997,0.0072620000000001
78.80000000000001,0.0093430000000001
79.00000000000006,0.008674
79.19999999999999,0.0076659999999999
79.40000000000003,0.0057549999999999
79.59999999999997,0.001003
79.80000000000001,-0.0020299999999999
80.00000000000006,-0.0020039999999998
80.19999999999999,0.001098
80.40000000000003,0.0027759999999998
80.59999999999997,0.0059579999999999
80.80000000000001,0.007247
81.00000000000006,0.007676
81.19999999999999,0.005749
81.40000000000003,0.0054119999999999
81.59999999999997,0.005538
81.80000000000001,0.007743
82.00000000000006,0.008995
82.19999999999999,0.008799
82.40000000000003,0.008942
82.59999999999997,0.0101249999999999
82.80000000000001,0.0101919999999999
83.00000000000006,0.009778
83.19999999999999,0.009249
83.40000000000003,0.008002
83.59999999999997,0.0076629999999999
83.80000000000001,0.005892
84.00000000000006,0.0050339999999999
84.19999999999999,0.004264
84.40000000000003,0.00187
84.59999999999997,7.099999999993223e-05
84.80000000000001,-0.0003159999999999
85.00000000000006,0.0003010000000001
85.19999999999999,0.000712
85.40000000000003,0.0023839999999999
85.59999999999997,0.002585
85.80000000000001,0.0029959999999999
86.00000000000006,0.0029509999999999
86.19999999999999,0.004126
86.40000000000003,0.003878
86.59999999999997,0.0024979999999998
86.80000000000001,-4.699999999990823e-05
87.00000000000006,-0.0012309999999999
87.19999999999999,-0.0003280000000001
87.40000000000003,0.000537
87.59999999999997,0.0024679999999999
87.80000000000001,0.0040029999999999
88.00000000000006,0.0028649999999998
88.19999999999999,5.199999999994098e-05
88.40000000000003,-0.001441
88.59999999999997,-0.004021
88.80000000000001,-0.005924
89.00000000000006,-0.004475
89.19999999999999,-0.0010289999999999
89.40000000000003,0.0010879999999999
89.59999999999997,0.0025459999999999
89.80000000000001,0.00459
90.00000000000006,0.0060549999999999
90.2,0.0056819999999999
90.40000000000003,0.00496
90.59999999999997,0.003964
90.8,0.003668
91.00000000000006,0.0019089999999999
91.2,-9.1999999999981e-05
91.40000000000003,0.0002079999999999
91.59999999999997,0.002561
91.8,0.00502
92.00000000000006,0.0068289999999999
92.2,0.0082930000000001
92.40000000000003,0.007775
92.59999999999997,0.0060549999999999
92.8,0.002887
93.00000000000006,0.0005170000000001
93.2,-0.000404
93.40000000000003,-0.0011719999999999
93.59999999999997,-0.000293
93.8,0.001092
94.00000000000006,0.0025189999999999
94.2,0.000739
94.40000000000003,-0.000428
94.59999999999997,-0.002259
94.8,-0.001959
95.00000000000006,-0.0017069999999999
95.2,0.001479
95.40000000000003,0.004563
95.59999999999997,0.0069349999999999
95.8,0.007522
96.00000000000006,0.008164
96.2,0.0067099999999999
96.40000000000003,0.0071619999999998
96.59999999999997,0.0068299999999998
96.8,0.0060359999999999
97.00000000000006,0.004691
97.2,0.0050049999999999
97.40000000000003,0.0026209999999999
97.59999999999997,0.0012239999999998
97.8,0.0001839999999999
98.00000000000006,-0.0006759999999998
98.2,-0.0018249999999999
98.40000000000003,-0.001206
98.59999999999997,0.0020409999999999
98.8,0.0040379999999999
99.00000000000006,0.0051810000000001
99.2,0.004982
99.40000000000003,0.0056639999999998
99.59999999999997,0.0029269999999999
99.8,0.0010339999999999
100.00000000000006,0.0014940000000001
100.2,0.002863
100.40000000000003,0.002661
100.59999999999997,0.0024889999999999
100.8,0.0021359999999999
101.00000000000006,0.0008639999999999
101.2,0.001389
101.40000000000003,0.0026749999999999
101.59999999999997,0.003845
101.8,0.0043029999999999
102.00000000000006,0.0036499999999999
102.2,0.002374
102.40000000000003,0.002377
102.59999999999997,0.0018329999999999
102.8,0.0018549999999999
103.00000000000006,0.001775
103.2,0.0020770000000001
103.40000000000003,0.0010259999999999
103.59999999999997,0.001376
103.8,0.001918
104.00000000000006,0.0034799999999999
104.2,0.0028259999999999
104.40000000000003,0.001657
104.59999999999997,0.000577
104.8,0.001417
105.00000000000006,0.0017249999999999
105.2,0.0024979999999998
105.40000000000003,0.002758
105.59999999999997,0.0048989999999999
105.8,0.0059679999999999
106.00000000000006,0.0070069999999999
106.2,0.007298
106.40000000000003,0.006922
106.59999999999997,0.0056899999999999
106.8,0.0052620000000001
107.00000000000006,0.0048369999999999
107.2,0.004439
107.40000000000003,0.0051429999999998
107.59999999999997,0.005012
107.8,0.002828
108.00000000000006,0.000175
108.2,-0.0018869999999999
108.40000000000003,-0.0051000000000001
108.59999999999997,-0.007765
108.8,-0.0090779999999999
109.00000000000006,-0.008588
109.2,-0.0087349999999999
109.40000000000003,-0.008091
109.59999999999997,-0.0073199999999999
109.8,-0.00482
110.00000000000006,-0.0024949999999999
110.2,0.0006679999999998
110.40000000000003,0.0028099999999999
110.59999999999997,0.004896
110.8,0.0044439999999998
111.00000000000006,0.0019949999999999
111.2,0.0003569999999999
111.40000000000003,0.001101
111.59999999999997,0.002618
111.8,0.003525
112.00000000000006,0.002834
112.2,0.001246
112.40000000000003,-0.001616
112.59999999999997,-0.00391
112.8,-0.005322
113.00000000000006,-0.0042109999999999
113.2,-0.0018039999999999
113.40000000000003,0.002018
113.59999999999997,0.004402
113.8,0.004691
114.00000000000006,0.0044090000000001
114.2,0.001921
114.40000000000003,-0.0015179999999999
114.59999999999997,-0.00478
114.8,-0.003424
115.00000000000006,-0.0013279999999999
115.2,0.002734
115.40000000000003,0.004545
115.59999999999997,0.005778
115.8,0.005249
116.00000000000006,0.003667
116.2,-0.000407
116.40000000000003,-0.0032669999999999
116.59999999999997,-0.004529
116.8,-0.0054389999999999
117.00000000000006,-0.0041789999999999
117.2,-0.0004219999999999
117.40000000000003,0.003392
117.59999999999997,0.0044949999999999
117.8,0.0044969999999999
118.00000000000006,0.0047539999999999
118.2,0.003918
118.40000000000003,0.0026909999999999
118.59999999999997,0.0023459999999999
118.8,0.002693
119.00000000000006,0.0025109999999999
119.2,0.0030269999999998
119.40000000000003,0.0042029999999999
119.59999999999997,0.004615
119.8,0.0052
120.00000000000006,0.005916
120.2,0.0069369999999999
120.40000000000003,0.0084550000000001
120.59999999999997,0.0103269999999999
120.8,0.012504
121.00000000000006,0.0131159999999999
121.2,0.010939
121.40000000000003,0.0070509999999999
121.59999999999997,0.0027349999999999
121.8,-0.0025509999999999
122.00000000000006,-0.0061310000000001
122.2,-0.0076339999999999
122.40000000000003,-0.0058359999999999
122.59999999999997,-0.001808
122.8,0.0020009999999999
123.00000000000006,0.0041919999999999
123.2,0.0050639999999999
123.40000000000003,0.0046429999999999
123.59999999999997,0.0019739999999999
123.8,-0.0007289999999999
124.00000000000006,-0.0019249999999999
124.2,-0.0008639999999999
124.40000000000003,-0.0006129999999999
124.59999999999997,0.0004360000000001
124.8,-0.0001409999999999
125.00000000000006,-0.0025429999999999
125.2,-0.004367
125.40000000000003,-0.0050639999999999
125.59999999999997,-0.0044599999999999
125.8,-0.0040819999999999
126.00000000000006,-0.0028649999999998
126.2,-0.001748
126.40000000000003,-0.0009829999999999
126.59999999999997,-0.0014179999999999
126.8,0.0005189999999999
127.00000000000006,0.0023820000000001
127.2,0.0023429999999999
127.40000000000003,0.003403
127.59999999999997,0.003519
127.8,0.0033039999999999
128.00000000000006,0.0050099999999999
128.2,0.005913
128.40000000000003,0.005403
128.59999999999997,0.006739
128.8,0.0079169999999999
129.00000000000006,0.007182
129.2,0.006059
129.40000000000003,0.003835
129.59999999999997,0.0018359999999999
129.8,0.0001869999999999
130.00000000000006,-0.0005049999999999
130.2,-0.000868
130.40000000000003,-0.0011749999999999
130.59999999999997,-0.0016179999999998
130.8,0.000329
131.00000000000006,0.0019329999999999
131.2,0.004936
131.40000000000003,0.0071019999999999
131.59999999999997,0.0074179999999999
131.8,0.0040929999999999
132.00000000000006,0.0009999999999998
132.2,-0.0019679999999999
132.40000000000003,-0.003724
132.59999999999997,-0.0054819999999999
132.8,-0.006601
133.00000000000006,-0.005956
133.2,-0.006164
133.40000000000003,-0.0055210000000001
133.59999999999997,-0.0044269999999999
133.8,-0.003268
134.00000000000006,-0.0025509999999999
134.2,-0.0019610000000001
134.40000000000003,-0.001605
134.59999999999997,-0.0016389999999999
134.8,-0.001457
135.00000000000006,-0.0043379999999999
135.2,-0.004706
135.40000000000003,-0.0054369999999999
135.59999999999997,-0.0063089999999998
135.8,-0.006936
136.00000000000006,-0.0047539999999999
136.2,-0.003587
136.40000000000003,-0.00293
136.59999999999997,-0.002923
136.8,-0.0032970000000001
137.00000000000006,-0.005776
137.2,-0.0071350000000001
137.40000000000003,-0.006801
137.59999999999997,-0.0032319999999999
137.8,0.0006209999999999
138.00000000000006,0.004205
138.2,0.0051609999999999
138.40000000000003,0.005068
138.59999999999997,0.0021949999999999
138.8,0.000499
139.00000000000006,-0.0011749999999999
139.2,-0.0009989999999999
139.40000000000003,-0.001883
139.59999999999997,-0.002396
139.8,-0.00367
140.00000000000006,-0.004269
140.2,-0.0060789999999999
140.40000000000003,-0.0060489999999999
140.59999999999997,-0.0047479999999999
140.8,-0.0039599999999999
141.00000000000006,-0.002251
141.2,-0.0004049999999999
141.40000000000003,-0.0005379999999999
141.59999999999997,0.0002349999999999
141.8,0.001257
142.00000000000006,0.000903
142.2,-0.001935
142.40000000000003,-0.00322
142.59999999999997,-0.005675
142.8,-0.0088589999999999
143.00000000000006,-0.0107159999999999
143.2,-0.009357
143.40000000000003,-0.0088189999999999
143.59999999999997,-0.008745
143.8,-0.005954
144.00000000000006,-0.003246
144.2,-0.002172
144.40000000000003,-0.0001869999999999
144.59999999999997,0.0010669999999999
144.8,-0.000596
145.00000000000006,-0.0025859999999999
145.2,-0.0029889999999999
145.40000000000003,-0.003346
145.59999999999997,-0.0019960000000001
145.8,-0.001166
146.00000000000006,-0.001146
146.2,-0.0024900000000001
146.40000000000003,-0.002558
146.59999999999997,-0.00279
146.8,-0.0021199999999998
147.00000000000006,-0.0019869999999999
147.2,-0.0011149999999999
147.40000000000003,-0.0013050000000001
147.59999999999997,-0.000677
147.8,0.000949
148.00000000000006,0.001622
148.2,0.0022189999999999
148.40000000000003,0.0018439999999999
148.59999999999997,0.0010619999999998
148.8,-9.900000000007124e-05
149.00000000000006,0.00164
149.2,0.003433
149.40000000000003,0.003727
149.59999999999997,0.000931
149.8,-0.0024109999999999
150.00000000000006,-0.0052309999999999
150.2,-0.007838
150.40000000000003,-0.007306
150.59999999999997,-0.005327
150.8,-0.0030399999999999
151.00000000000006,-0.003478
151.2,-0.0029239999999999
151.40000000000003,-0.0035689999999999
151.59999999999997,-0.0031319999999999
151.8,-0.0035609999999999
152.00000000000006,-0.003241
152.2,-0.0040999999999999
152.40000000000003,-0.003532
152.59999999999997,-0.0013559999999999
152.8,-0.0006060000000001
153.00000000000006,0.0002789999999999
153.2,-2.4999999999941732e-05
153.40000000000003,-0.000755
153.59999999999997,-0.003201
153.8,-0.001098
154.00000000000006,0.0006129999999999
154.2,0.0027699999999999
154.40000000000003,0.0035369999999999
154.59999999999997,0.0052929999999999
154.8,0.002995
155.00000000000006,0.001516
155.2,0.000186
155.40000000000003,-0.001058
155.59999999999997,-0.004083
155.8,-0.0050699999999999
156.00000000000006,-0.0055799999999999
156.2,-0.0049049999999999
156.40000000000003,-0.004386
156.59999999999997,-0.0043779999999999
156.8,-0.0026589999999999
157.00000000000006,-0.0021329999999999
157.2,-0.0012289999999999
157.40000000000003,-0.0007569999999998
157.59999999999997,0.001303
157.8,0.0011769999999999
158.00000000000006,0.0017789999999999
158.2,0.0005269999999999
158.40000000000003,-0.000914
158.59999999999997,-0.0038260000000001
158.8,-0.0066029999999999
159.00000000000006,-0.0083899999999998
159.2,-0.0073240000000001
159.40000000000003,-0.0046939999999999
159.59999999999997,-0.0021219999999999
159.8,-0.0012669999999999
160.00000000000006,-0.001997
160.2,-0.0040739999999999
160.40000000000003,-0.0074209999999999
160.59999999999997,-0.0070099999999999
160.8,-0.0053909999999999
161.00000000000006,-0.00231
161.2,0.000504
161.40000000000003,0.0032689999999999
161.59999999999997,0.0030289999999999
161.8,0.0033279999999999
162.00000000000006,0.0022439999999999
162.2,0.001227
162.40000000000003,0.000445
162.59999999999997,-0.000693
162.8,-0.0029639999999999
163.00000000000006,-0.0049380000000001
163.2,-0.005435
163.40000000000003,-0.0050239999999999
163.59999999999997,-0.004936
163.8,-0.004893
164.00000000000006,-0.0041850000000001
164.2,-0.0055719999999999
164.40000000000003,-0.0061739999999999
164.59999999999997,-0.0067939999999999
164.8,-0.003567
165.00000000000006,-0.0015560000000001
165.2,0.000366
165.40000000000003,-0.0005489999999999
165.59999999999997,-0.001036
165.8,-0.002332
166.00000000000006,-0.0016879999999999
166.2,-0.0016020000000001
166.40000000000003,-0.001471
166.59999999999997,-0.0020039999999998
166.8,-0.0012129999999999
167.00000000000006,-0.0006759999999998
167.2,-0.0001169999999999
167.40000000000003,0.0007669999999999
167.59999999999997,0.00201
167.8,-0.000251
168.00000000000006,-0.0043820000000001
168.2,-0.007301
168.40000000000003,-0.008426
168.59999999999997,-0.0091339999999999
168.8,-0.0100960000000001
169.00000000000006,-0.008062
169.2,-0.006809
169.40000000000003,-0.0050399999999999
169.59999999999997,-0.003176
169.8,0.0002889999999999
170.00000000000006,-7.000000000090267e-06
170.2,0.0001759999999999
170.40000000000003,-0.0022470000000001
170.59999999999997,-0.00265
170.8,-0.0035899999999999
171.00000000000006,-0.002572
171.2,-0.002204
171.40000000000003,-0.0003859999999999
171.59999999999997,9.700000000001374e-05
171.8,-0.0008889999999999
172.00000000000006,-0.0013860000000001
172.2,-0.002631
172.40000000000003,-0.003074
172.59999999999997,-0.0046999999999999
172.8,-0.0051859999999999
173.00000000000006,-0.005897
173.2,-0.0061919999999999
173.40000000000003,-0.0055899999999999
173.59999999999997,-0.0042379999999999
173.8,-0.003638
174.00000000000006,-0.00401
174.2,-0.00299
174.40000000000003,-0.003527
174.59999999999997,-0.0043509999999999
174.8,-0.00468
175.00000000000006,-0.0052289999999999
175.2,-0.0063740000000001
175.40000000000003,-0.008642
175.59999999999997,-0.010974
175.8,-0.0135879999999999
176.00000000000006,-0.013606
176.2,-0.012515
176.40000000000003,-0.0108449999999999
176.59999999999997,-0.0105889999999999
176.8,-0.01048
177.00000000000006,-0.011762
177.2,-0.0131369999999999
177.40000000000003,-0.0122739999999998
177.59999999999997,-0.0094909999999999
177.8,-0.0064509999999999
178.00000000000006,-0.0035929999999999
178.2,-0.0031259999999999
178.40000000000003,-0.0035169999999999
178.59999999999997,-0.005913
178.8,-0.008186
179.00000000000006,-0.010523
179.2,-0.0101119999999998
179.40000000000003,-0.008491
179.59999999999997,-0.0055419999999999
179.8,-0.0031529999999999
180.00000000000006,-0.0026489999999999
180.2,-0.0040469999999999
180.40000000000003,-0.006658
180.6,-0.007233
180.8,-0.0077959999999999
181.00000000000009,-0.0050149999999999
181.2,-0.0024239999999999
181.40000000000003,0.0010159999999999
181.6,0.001125
181.8,0.0007749999999999
182.00000000000009,-0.002976
182.2,-0.0056549999999999
182.40000000000003,-0.0078609999999998
182.6,-0.008229
182.8,-0.0085519999999998
183.00000000000009,-0.0079009999999999
183.2,-0.006256
183.40000000000003,-0.0055
183.6,-0.005929
183.8,-0.0059039999999999
184.00000000000009,-0.0055199999999999
184.2,-0.0043649999999999
184.40000000000003,-0.004061
184.6,-0.0007779999999999
184.8,0.0013049999999998
185.00000000000009,0.0026639999999999
185.2,0.0024299999999999
185.40000000000003,0.0023759999999999
185.6,-0.000318
185.8,-0.0028729999999999
186.00000000000009,-0.005481
186.2,-0.009595
186.40000000000003,-0.0117179999999998
186.6,-0.013098
186.8,-0.0114129999999998
187.00000000000009,-0.009444
187.2,-0.0061539999999999
187.40000000000003,-0.0063280000000001
187.6,-0.006275
187.8,-0.008693
188.00000000000009,-0.009695
188.2,-0.0115819999999999
188.40000000000003,-0.0119260000000001
188.6,-0.0126159999999999
188.8,-0.011354
189.00000000000009,-0.0102729999999999
189.2,-0.008644
189.40000000000003,-0.007692
189.6,-0.0070149999999999
189.8,-0.006787
190.00000000000009,-0.006985
190.2,-0.0063709999999999
190.40000000000003,-0.005749
190.6,-0.0042539999999999
190.8,-0.002679
191.00000000000009,-0.0026139999999998
191.2,-0.005311
191.40000000000003,-0.0064079999999999
191.6,-0.0069449999999999
191.8,-0.009109
192.00000000000009,-0.010464
192.2,-0.0091239999999999
192.40000000000003,-0.008631
192.6,-0.0083869999999999
192.8,-0.0075639999999999
193.00000000000009,-0.0068099999999999
193.2,-0.007066
193.40000000000003,-0.0077659999999999
193.6,-0.008588
193.8,-0.008267
194.00000000000009,-0.0068019999999999
194.2,-0.006288
194.40000000000003,-0.0063159999999999
194.6,-0.0071339999999999
194.8,-0.0073589999999998
195.00000000000009,-0.0080579999999998
195.2,-0.0086889999999999
195.40000000000003,-0.007727
195.6,-0.006599
195.8,-0.0067099999999999
196.00000000000009,-0.0080519999999999
196.2,-0.0085239999999999
196.40000000000003,-0.0100919999999999
196.6,-0.0112620000000001
196.8,-0.011549
197.00000000000009,-0.009989
197.2,-0.0070559999999999
197.40000000000003,-0.0058879999999998
197.6,-0.006504
197.8,-0.0081249999999999
198.00000000000009,-0.00831
198.2,-0.0089479999999999
198.40000000000003,-0.0077499999999999
198.6,-0.0052209999999999
198.8,-0.0030959999999999
199.00000000000009,-0.003174
199.2,-0.0035829999999998
199.40000000000003,-0.004936
199.6,-0.0060439999999999
199.8,-0.0067099999999999
200.00000000000009,-0.007314
200.2,-0.006766
200.40000000000003,-0.006483
200.6,-0.0062839999999999
200.8,-0.0078849999999999
201.00000000000009,-0.0082359999999999
201.2,-0.0100420000000001
201.40000000000003,-0.010054
201.6,-0.011031
201.8,-0.0092129999999999
202.00000000000009,-0.007829
202.2,-0.0060059999999999
202.40000000000003,-0.005319
202.6,-0.0052779999999998
202.8,-0.005352
203.00000000000009,-0.0070449999999999
203.2,-0.0090859999999999
203.40000000000003,-0.0129969999999999
203.6,-0.0141949999999999
203.8,-0.0127410000000001
204.00000000000009,-0.008642
204.2,-0.005765
204.40000000000003,-0.0019579999999999
204.6,0.0007539999999999
204.8,-0.0005779999999999
205.00000000000009,-0.0037100000000001
205.2,-0.004825
205.40000000000003,-0.0048639999999999
205.6,-0.004234
205.8,-0.003926
206.00000000000009,-0.002885
206.2,-0.003384
206.40000000000003,-0.0046399999999999
206.6,-0.0075989999999999
206.8,-0.0102059999999999
207.00000000000009,-0.011686
207.2,-0.0134590000000001
207.40000000000003,-0.0124889999999999
207.6,-0.0106619999999999
207.8,-0.0077579999999999
208.00000000000009,-0.00614
208.2,-0.0053909999999999
208.40000000000003,-0.0069719999999999
208.6,-0.006369
208.8,-0.0067829999999999
209.00000000000009,-0.0068619999999999
209.2,-0.0051369999999999
209.40000000000003,-0.002515
209.6,-0.0024779999999999
209.8,-0.001314
210.00000000000009,-0.001208
210.2,-0.0014
210.40000000000003,-0.0032700000000001
210.6,-0.004717
210.8,-0.0064299999999999
211.00000000000009,-0.0071879999999999
211.2,-0.007041
211.40000000000003,-0.005273
211.6,-0.004148
211.8,-0.002807
212.00000000000009,-0.0045539999999999
212.2,-0.0050129999999999
212.40000000000003,-0.0051909999999999
212.6,-0.0041789999999999
212.8,-0.004787
213.00000000000009,-0.002726
213.2,-0.0027680000000001
213.40000000000003,-0.0051129999999999
213.6,-0.007449
213.8,-0.0080059999999999
214.00000000000009,-0.008421
214.2,-0.0084249999999999
214.40000000000003,-0.0060279999999999
214.6,-0.0042549999999998
214.8,-0.002491
215.00000000000009,-0.002002
215.2,-0.001703
215.40000000000003,-0.003325
215.6,-0.0038279999999999
215.8,-0.0048559999999999
216.00000000000009,-0.0061679999999999
216.2,-0.0065269999999999
216.40000000000003,-0.005276
216.6,-0.006477
216.8,-0.0075449999999999
217.00000000000009,-0.007532
217.2,-0.008124
217.40000000000003,-0.008013
217.6,-0.0072289999999999
217.8,-0.0056719999999998
218.00000000000009,-0.0056879999999999
218.2,-0.00635
218.40000000000003,-0.008966
218.6,-0.0109449999999999
218.8,-0.012183
219.00000000000009,-0.0107459999999999
219.2,-0.0082219999999999
219.40000000000003,-0.0055659999999999
219.6,-0.004601
219.8,-0.005163
220.00000000000009,-0.0051369999999999
220.2,-0.005945
220.40000000000003,-0.005878
220.6,-0.0059379999999999
220.8,-0.005886
221.00000000000009,-0.007184
221.2,-0.0076609999999999
221.40000000000003,-0.0090799999999999
221.6,-0.0068559999999999
221.8,-0.005144
222.00000000000009,-0.0035959999999999
222.2,-0.002599
222.40000000000003,-0.0027099999999999
222.6,-0.0039899999999999
222.8,-0.004912
223.00000000000009,-0.004275
223.2,-0.0055130000000001
223.40000000000003,-0.005632
223.6,-0.007236
223.8,-0.0082660000000001
224.00000000000009,-0.0100009999999999
224.2,-0.0095199999999999
224.40000000000003,-0.008081
224.6,-0.005643
224.8,-0.0049289999999999
225.00000000000009,-0.005193
225.2,-0.005729
225.40000000000003,-0.0061219999999999
225.6,-0.0065459999999999
225.8,-0.00685
226.00000000000009,-0.008593
226.2,-0.010318
226.40000000000003,-0.011781
226.6,-0.011665
226.8,-0.0101919999999999
227.00000000000009,-0.007686
227.2,-0.00526
227.40000000000003,-0.003071
227.6,-0.001692
227.8,-0.0009099999999999
228.00000000000009,-0.000226
228.2,-0.0002390000000001
228.40000000000003,-0.0004729999999999
228.6,-0.002415
228.8,-0.0045729999999999
229.00000000000009,-0.0053939999999998
229.2,-0.005862
229.40000000000003,-0.0067049999999999
229.6,-0.006604
229.8,-0.0073559999999999
230.00000000000009,-0.0084329999999999
230.2,-0.00906
230.40000000000003,-0.0091939999999999
230.6,-0.0095899999999999
230.8,-0.007422
231.00000000000009,-0.0046999999999999
231.2,-0.0029889999999999
231.40000000000003,-0.004283
231.6,-0.0074749999999998
231.8,-0.0101040000000001
232.00000000000009,-0.0129319999999999
232.2,-0.013689
232.40000000000003,-0.013106
232.6,-0.0092449999999999
232.8,-0.007865
233.00000000000009,-0.0068109999999999
233.2,-0.0073929999999999
233.40000000000003,-0.008118
233.6,-0.0094879999999999
233.8,-0.0091179999999999
234.00000000000009,-0.0086429999999999
234.2,-0.0077119999999999
234.40000000000003,-0.00574
234.6,-0.005484
234.8,-0.005816
235.00000000000009,-0.0065409999999999
235.2,-0.00817
235.40000000000003,-0.0088189999999999
235.6,-0.007214
235.8,-0.005759
236.00000000000009,-0.005392
236.2,-0.004817
236.40000000000003,-0.003973
236.6,-0.0048019999999999
236.8,-0.004963
237.00000000000009,-0.0045599999999998
237.2,-0.004593
237.40000000000003,-0.005349
237.6,-0.003265
237.8,-0.000291
238.00000000000009,0.0026539999999999
238.2,0.005192
238.40000000000003,0.0072209999999999
238.6,0.0066079999999999
238.8,0.003203
239.00000000000009,-0.001481
239.2,-0.0045319999999999
239.40000000000003,-0.006358
239.6,-0.005587
239.8,-0.0050349999999999
240.00000000000009,-0.0035069999999999
240.2,-0.001916
240.40000000000003,-0.0001299999999999
240.6,6.299999999992423e-05
240.8,1.199999999990098e-05
241.00000000000009,-0.001109
241.2,-0.0027589999999999
241.40000000000003,-0.0059709999999999
241.6,-0.0092049999999999
241.8,-0.011686
242.00000000000009,-0.0118599999999999
242.2,-0.0104349999999999
242.40000000000003,-0.006563
242.6,-0.0043539999999999
242.8,-0.0036769999999999
243.00000000000009,-0.0042999999999999
243.2,-0.0050349999999999
243.40000000000003,-0.0078009999999999
243.6,-0.0097659999999999
243.8,-0.0100279999999999
244.00000000000009,-0.0091889999999998
244.2,-0.009689
244.40000000000003,-0.009522
244.6,-0.009003
244.8,-0.0086589999999999
245.00000000000009,-0.0086219999999999
245.2,-0.0081580000000001
245.40000000000003,-0.0078059999999999
245.6,-0.008636
245.8,-0.00987
246.00000000000009,-0.011025
246.2,-0.011195
246.40000000000003,-0.010782
246.6,-0.00936
246.8,-0.0066939999999999
247.00000000000009,-0.004531
247.2,-0.0053499999999999
247.40000000000003,-0.0064569999999999
247.6,-0.0065479999999999
247.8,-0.0059329999999999
248.00000000000009,-0.0062489999999999
248.2,-0.005552
248.40000000000003,-0.005295
248.6,-0.005498
248.8,-0.006383
249.00000000000009,-0.0058439999999999
249.2,-0.0064519999999999
249.40000000000003,-0.0078489999999999
249.6,-0.010356
249.8,-0.0112639999999999
250.00000000000009,-0.012853
250.2,-0.013195
250.40000000000003,-0.0125980000000001
250.6,-0.0096259999999999
250.8,-0.0084509999999999
251.00000000000009,-0.0084630000000001
251.2,-0.007384
251.40000000000003,-0.0051509999999999
251.6,-0.005041
251.8,-0.006261
252.00000000000009,-0.00574
252.2,-0.00641
252.40000000000003,-0.008591
252.6,-0.0114469999999999
252.8,-0.013778
253.00000000000009,-0.014531
253.2,-0.012469
253.40000000000003,-0.010413
253.6,-0.0079659999999999
253.8,-0.0050939999999999
254.00000000000009,-0.0044539999999999
254.2,-0.0072389999999999
254.40000000000003,-0.0088239999999999
254.6,-0.0089529999999999
254.8,-0.008604
255.00000000000009,-0.0099579999999999
255.2,-0.0116519999999999
255.40000000000003,-0.014189
255.6,-0.0156480000000001
255.8,-0.0151639999999999
256.00000000000006,-0.0125669999999999
256.2,-0.0080759999999999
256.40000000000003,-0.0044090000000001
256.6,-0.0021979999999999
256.8,-0.0019340000000001
257.00000000000006,-0.0034659999999999
257.2,-0.0062409999999999
257.40000000000003,-0.0083759999999999
257.6,-0.009433
257.8,-0.0111689999999999
258.00000000000006,-0.010995
258.2,-0.0104869999999999
258.40000000000003,-0.0097679999999999
258.6,-0.0095719999999999
258.8,-0.0085090000000001
259.00000000000006,-0.006391
259.2,-0.0055309999999999
259.40000000000003,-0.0043709999999999
259.6,-0.00492
259.8,-0.0053989999999999
260.00000000000006,-0.007101
260.2,-0.007012
260.40000000000003,-0.007238
260.6,-0.0062169999999999
260.8,-0.0056519999999999
261.00000000000006,-0.003425
261.2,-0.000755
261.40000000000003,-7.000000000090267e-06
261.6,-0.000755
261.8,-0.0027189999999999
262.00000000000006,-0.0057059999999999
262.2,-0.00784
262.40000000000003,-0.007773
262.6,-0.0066219999999999
262.8,-0.0043519999999999
263.00000000000006,-0.002957
263.2,-0.0022159999999999
263.40000000000003,-0.0026129999999999
263.6,-0.0031890000000001
263.8,-0.004806
264.00000000000006,-0.0070019999999999
264.2,-0.00855
264.40000000000003,-0.010483
264.6,-0.011471
264.8,-0.011417
265.00000000000006,-0.009622
265.2,-0.008447
265.40000000000003,-0.0078119999999999
265.6,-0.007449
265.8,-0.00824
266.00000000000006,-0.0094769999999999
266.2,-0.009392
266.40000000000003,-0.007247
266.6,-0.006283
266.8,-0.004272
267.00000000000006,-0.0030239999999999
267.2,-0.0044459999999999
267.40000000000003,-0.0059899999999999
267.6,-0.007886
267.8,-0.010588
268.00000000000006,-0.0114240000000001
268.2,-0.0106649999999999
268.40000000000003,-0.0117
268.6,-0.011103
268.8,-0.0088349999999999
269.00000000000006,-0.0080709999999999
269.2,-0.0094279999999999
269.40000000000003,-0.00933
269.6,-0.0084599999999999
269.8,-0.008931
270.00000000000006,-0.0096249999999999
270.2,-0.0092579999999999
270.40000000000003,-0.0092779999999998
270.6,-0.0110399999999999
270.8,-0.011524
271.00000000000006,-0.0107639999999999
271.2,-0.011055
271.40000000000003,-0.011349
271.6,-0.0095009999999999
271.8,-0.0075119999999999
272.00000000000006,-0.0068829999999999
272.2,-0.0056469999999999
272.40000000000003,-0.0049069999999999
272.6,-0.004952
272.8,-0.0060599999999999
273.00000000000006,-0.0061029999999999
273.2,-0.0059169999999999
273.40000000000003,-0.00661
273.6,-0.011705
273.8,-0.0144159999999999
274.00000000000006,-0.016968
274.2,-0.0176039999999999
274.40000000000003,-0.0181759999999999
274.6,-0.0134749999999999
274.8,-0.009948
275.00000000000006,-0.0060979999999999
275.2,-0.003862
275.40000000000003,-0.000669
275.6,5.499999999991623e-05
275.8,-0.0012160000000001
276.00000000000006,-0.0047159999999999
276.2,-0.008256
276.40000000000003,-0.009033
276.6,-0.0098879999999998
276.8,-0.0092939999999999
277.00000000000006,-0.0074629999999999
277.2,-0.0085869999999999
277.40000000000003,-0.013039
277.6,-0.01587
277.8,-0.0158720000000001
278.00000000000006,-0.016296
278.2,-0.013338
278.40000000000003,-0.0081580000000001
278.6,-0.003919
278.8,-0.0027559999999999
279.00000000000006,-0.0019439999999999
279.2,-0.0012289999999999
279.40000000000003,-0.002391
279.6,-0.003967
279.8,-0.0058149999999999
280.00000000000006,-0.005616
280.2,-0.00604
280.40000000000003,-0.005749
280.6,-0.006099
280.8,-0.0085239999999999
281.00000000000006,-0.011689
281.2,-0.01258
281.40000000000003,-0.0131719999999999
281.6,-0.0110809999999998
281.8,-0.0077199999999999
282.00000000000006,-0.0044889999999999
282.2,-0.0033009999999999
282.40000000000003,-0.003289
282.6,-0.006089
282.8,-0.010013
283.00000000000006,-0.014196
283.2,-0.0174529999999999
283.40000000000003,-0.0194229999999999
283.6,-0.0188459999999999
283.8,-0.016566
284.00000000000006,-0.0143969999999999
284.2,-0.0128410000000001
284.40000000000003,-0.0119579999999999
284.6,-0.011422
284.8,-0.0102089999999999
285.00000000000006,-0.01
285.2,-0.010852
285.40000000000003,-0.0116359999999999
285.6,-0.0140249999999999
285.8,-0.0156199999999999
286.00000000000006,-0.016502
286.2,-0.0156909999999999
286.40000000000003,-0.0149159999999999
286.6,-0.0133289999999999
286.8,-0.0130699999999999
287.00000000000006,-0.011157
287.2,-0.0112319999999999
287.40000000000003,-0.010021
287.6,-0.0099169999999999
287.8,-0.009263
288.00000000000006,-0.0098609999999998
288.2,-0.0084189999999999
288.40000000000003,-0.009549
288.6,-0.0083759999999999
288.8,-0.007419
289.00000000000006,-0.0076849999999999
289.2,-0.0090149999999999
289.40000000000003,-0.0091589999999999
289.6,-0.009905
289.8,-0.0123079999999999
290.00000000000006,-0.0133389999999999
290.2,-0.0123159999999999
290.40000000000003,-0.01082
290.6,-0.01008
290.8,-0.007665
291.00000000000006,-0.0062390000000001
291.2,-0.008895
291.40000000000003,-0.0122189999999999
291.6,-0.015287
291.8,-0.0189939999999999
292.00000000000006,-0.0212589999999999
292.2,-0.020202
292.40000000000003,-0.017379
292.6,-0.0146589999999999
292.8,-0.0122869999999999
293.00000000000006,-0.0113959999999999
293.2,-0.0116069999999999
293.40000000000003,-0.014132
293.6,-0.016593
293.8,-0.015829
294.00000000000006,-0.0146049999999999
294.2,-0.014161
294.40000000000003,-0.0125059999999999
294.6,-0.0110639999999999
294.8,-0.012005
295.00000000000006,-0.0121850000000001
295.2,-0.0108779999999999
295.40000000000003,-0.010809
295.6,-0.0106489999999999
295.8,-0.0092559999999999
296.00000000000006,-0.008116
296.2,-0.0095629999999999
296.40000000000003,-0.0086429999999999
296.6,-0.0074149999999999
296.8,-0.008237
297.00000000000006,-0.010072
297.2,-0.0105980000000001
297.40000000000003,-0.0119279999999999
297.6,-0.013517
297.8,-0.014474
298.00000000000006,-0.015948
298.2,-0.015327
298.40000000000003,-0.0133799999999999
298.6,-0.0122249999999999
298.8,-0.0110699999999999
299.00000000000006,-0.0105129999999999
299.2,-0.0096879999999999
299.40000000000003,-0.0111239999999999
299.6,-0.010229
299.8,-0.012799
300.00000000000006,-0.015759
300.2,-0.0198009999999999
300.40000000000003,-0.022288
300.6,-0.0264660000000001
300.8,-0.028947
301.00000000000006,-0.028893
301.2,-0.029322
301.40000000000003,-0.02895
301.6,-0.028486
301.8,-0.027905
302.00000000000006,-0.0279819999999999
302.2,-0.026407
302.40000000000003,-0.0249680000000001
302.6,-0.022207
302.8,-0.020116
303.00000000000006,-0.0209189999999999
303.2,-0.0210399999999999
303.40000000000003,-0.0215179999999999
303.6,-0.0246269999999999
303.8,-0.026766
304.00000000000006,-0.0248509999999999
304.2,-0.0240009999999999
304.40000000000003,-0.023605
304.6,-0.0239959999999999
304.8,-0.0251859999999999
305.00000000000006,-0.029735
305.2,-0.0344899999999999
305.40000000000003,-0.037857
305.6,-0.037492
305.8,-0.0347779999999999
306.00000000000006,-0.030666
306.2,-0.025384
306.40000000000003,-0.021938
306.6,-0.021973
306.8,-0.02401
307.00000000000006,-0.0254199999999999
307.2,-0.0275590000000001
307.40000000000003,-0.0309680000000001
307.6,-0.0301139999999999
307.8,-0.0288029999999999
308.00000000000006,-0.026764
308.2,-0.0264459999999999
308.40000000000003,-0.0244519999999999
308.6,-0.0254319999999999
308.8,-0.026237
309.00000000000006,-0.027392
309.2,-0.0258089999999999
309.40000000000003,-0.0242469999999999
309.6,-0.0235659999999999
309.8,-0.0220569999999999
310.00000000000006,-0.0216169999999999
310.2,-0.023185
310.40000000000003,-0.0252339999999999
310.6,-0.0261979999999999
310.8,-0.0278929999999999
311.00000000000006,-0.0303389999999998
311.2,-0.0318
311.40000000000003,-0.032248
311.6,-0.0322690000000001
311.8,-0.0338830000000001
312.00000000000006,-0.0320519999999999
312.2,-0.030453
312.40000000000003,-0.0288299999999999
312.6,-0.0278199999999999
312.8,-0.0256119999999999
313.00000000000006,-0.0271259999999999
313.2,-0.027536
313.40000000000003,-0.027927
313.6,-0.027169
313.8,-0.0272429999999999
314.00000000000006,-0.027209
314.2,-0.029044
314.40000000000003,-0.029889
314.6,-0.030707
314.8,-0.031309
315.00000000000006,-0.030594
315.2,-0.0299689999999999
315.40000000000003,-0.032213
315.6,-0.034545
315.8,-0.031914
316.00000000000006,-0.0311749999999999
316.2,-0.031295
316.40000000000003,-0.030925
316.6,-0.0298439999999999
316.8,-0.0335199999999999
317.00000000000006,-0.034251
317.2,-0.035255
317.40000000000003,-0.033171
317.6,-0.031857
317.8,-0.029444
318.00000000000006,-0.0302469999999999
318.2,-0.0279259999999998
318.40000000000003,-0.0278979999999999
318.6,-0.0294970000000001
318.8,-0.0300819999999999
319.00000000000006,-0.030175
319.2,-0.033277
319.40000000000003,-0.0365569999999999
319.6,-0.0366569999999999
319.8,-0.0385329999999999
320.00000000000006,-0.0380769999999999
320.2,-0.0357769999999999
320.40000000000003,-0.0328159999999999
320.6,-0.03245
320.8,-0.0324459999999999
321.00000000000006,-0.0330719999999999
321.2,-0.0337670000000001
321.40000000000003,-0.0332339999999999
321.6,-0.032248
321.8,-0.031036
322.00000000000006,-0.0293309999999999
322.2,-0.0267319999999999
322.40000000000003,-0.0259629999999999
322.6,-0.02455
322.8,-0.024059
323.00000000000006,-0.0245709999999999
323.2,-0.026126
323.40000000000003,-0.027309
323.6,-0.029589
323.8,-0.0289589999999999
324.00000000000006,-0.029339
324.2,-0.0309999999999999
324.40000000000003,-0.0312619999999999
324.6,-0.0283389999999998
324.8,-0.0272989999999999
325.00000000000006,-0.025649
325.2,-0.022159
325.40000000000003,-0.0225839999999999
325.6,-0.02424
325.8,-0.027363
326.00000000000006,-0.0301899999999999
326.2,-0.033997
326.40000000000003,-0.0339499999999999
326.6,-0.0344009999999999
326.8,-0.033034
327.00000000000006,-0.030953
327.2,-0.029363
327.40000000000003,-0.03051
327.6,-0.031336
327.8,-0.0324619999999999
328.00000000000006,-0.0333699999999999
328.2,-0.033557
328.40000000000003,-0.0298249999999999
328.6,-0.0281109999999999
328.8,-0.026585
329.00000000000006,-0.025274
329.2,-0.025762
329.40000000000003,-0.0287779999999999
329.6,-0.02956
329.8,-0.0306219999999999
330.00000000000006,-0.0320990000000001
330.2,-0.031619
330.40000000000003,-0.031063
330.6,-0.0319
330.8,-0.031304
331.00000000000006,-0.0291030000000001
331.2,-0.025673
331.40000000000003,-0.022316
331.6,-0.0211909999999999
331.8,-0.023147
332.00000000000006,-0.026091
332.2,-0.0292889999999999
332.40000000000003,-0.033654
332.6,-0.036799
332.8,-0.038502
333.00000000000006,-0.0411479999999999
333.2,-0.042048
333.40000000000003,-0.0422229999999999
333.6,-0.0415129999999999
333.8,-0.0378469999999999
334.00000000000006,-0.0343249999999999
334.2,-0.0330220000000001
334.40000000000003,-0.0311289999999999
334.6,-0.0300519999999999
334.8,-0.032742
335.00000000000006,-0.0339469999999999
335.2,-0.03407
335.40000000000003,-0.0350369999999999
335.6,-0.033851
335.8,-0.0297929999999999
336.00000000000006,-0.028216
336.2,-0.0304269999999999
336.40000000000003,-0.03112
336.6,-0.0337609999999999
336.8,-0.0369079999999999
337.00000000000006,-0.0394019999999999
337.2,-0.041465
337.40000000000003,-0.044402
337.6,-0.0440599999999999
337.8,-0.0421659999999999
338.00000000000006,-0.038343
338.2,-0.0336829999999999
338.40000000000003,-0.030694
338.6,-0.0324759999999999
338.8,-0.0361469999999999
339.00000000000006,-0.0388379999999999
339.2,-0.0406999999999999
339.40000000000003,-0.0393609999999999
339.6,-0.036526
339.8,-0.035932
340.00000000000006,-0.038029
340.2,-0.0374609999999999
340.40000000000003,-0.0383899999999999
340.6,-0.036178
340.8,-0.032216
341.00000000000006,-0.0297750000000001
341.2,-0.030237
341.40000000000003,-0.0312859999999999
341.6,-0.0324439999999999
341.8,-0.0341880000000001
342.00000000000006,-0.0325820000000001
342.2,-0.0316549999999999
342.40000000000003,-0.0295
342.6,-0.03115
342.8,-0.031295
343.00000000000006,-0.033249
343.2,-0.0331619999999999
343.40000000000003,-0.034677
343.6,-0.033911
343.8,-0.0340800000000001
344.00000000000006,-0.0347679999999999
344.2,-0.0346459999999999
344.40000000000003,-0.033808
344.6,-0.0321569999999999
344.8,-0.032288
345.00000000000006,-0.0311609999999999
345.2,-0.0321629999999999
345.40000000000003,-0.0319279999999999
345.6,-0.0321929999999999
345.8,-0.030756
346.00000000000006,-0.031077
346.2,-0.0308319999999999
346.40000000000003,-0.030931
346.6,-0.0335019999999999
346.8,-0.035363
347.00000000000006,-0.0351490000000001
347.2,-0.0357050000000001
347.40000000000003,-0.035927
347.6,-0.033374
347.8,-0.030278
348.00000000000006,-0.02811
348.2,-0.0250019999999999
348.40000000000003,-0.0263009999999999
348.6,-0.0289759999999998
348.8,-0.0326169999999998
349.00000000000006,-0.034264
349.2,-0.037535
349.40000000000003,-0.037182
349.6,-0.036364
349.8,-0.035158
350.00000000000006,-0.0343059999999999
350.2,-0.034505
350.40000000000003,-0.0342199999999999
350.6,-0.032607
350.8,-0.03089
351.00000000000006,-0.0315099999999999
351.2,-0.029557
351.40000000000003,-0.0291589999999999
351.6,-0.0318279999999999
351.8,-0.0359279999999999
352.00000000000006,-0.039012
352.2,-0.0432349999999999
352.40000000000003,-0.044232
352.6,-0.041401
352.8,-0.0380629999999999
353.00000000000006,-0.0336719999999999
353.2,-0.0311719999999999
353.40000000000003,-0.0319789999999999
353.6,-0.035298
353.8,-0.0351559999999999
354.00000000000006,-0.0371749999999999
354.2,-0.0373909999999999
354.40000000000003,-0.0378149999999999
354.6,-0.037104
354.8,-0.038755
355.00000000000006,-0.038828
355.2,-0.039447
355.40000000000003,-0.0384619999999999
355.6,-0.036275
355.8,-0.035311
356.00000000000006,-0.0354319999999999
356.2,-0.0349019999999999
356.40000000000003,-0.0352959999999999
356.6,-0.038138
356.8,-0.0382759999999999
357.00000000000006,-0.0388250000000001
357.2,-0.038092
357.40000000000003,-0.0361139999999999
357.6,-0.033366
357.8,-0.033422
358.00000000000006,-0.033125
358.2,-0.0329509999999999
358.40000000000003,-0.032785
358.6,-0.033071
358.8,-0.0334309999999999
359.00000000000006,-0.0344629999999999
359.2,-0.0371159999999999
359.40000000000003,-0.0378179999999999
359.6,-0.0387109999999999
359.8,-0.037428
360.00000000000006,-0.0358439999999999
360.2,-0.0347170000000001
360.4,-0.036926
360.6,-0.0375129999999999
360.8,-0.037492
361.00000000000006,-0.0353639999999999
361.2,-0.033276
361.4,-0.031738
361.6,-0.0341299999999999
361.8,-0.0371289999999999
362.00000000000006,-0.0421800000000001
362.2,-0.044354
362.4,-0.0451539999999999
362.6,-0.041878
362.8,-0.040048
363.00000000000006,-0.0370459999999999
363.2,-0.0358519999999999
363.4,-0.0363329999999999
363.6,-0.0371159999999999
363.8,-0.0369409999999998
364.00000000000006,-0.0384409999999999
364.2,-0.039744
364.4,-0.0375589999999999
364.6,-0.037114
364.8,-0.0385409999999999
365.00000000000006,-0.03716
365.2,-0.0361569999999999
365.4,-0.0340759999999999
365.6,-0.0319519999999999
365.8,-0.0285919999999999
366.00000000000006,-0.0300659999999999
366.2,-0.030202
366.4,-0.0326809999999999
366.6,-0.034701
366.8,-0.036761
367.00000000000006,-0.0357009999999999
367.2,-0.0361089999999999
367.4,-0.0362059999999999
367.6,-0.0361229999999999
367.8,-0.0374179999999999
368.00000000000006,-0.037244
368.2,-0.03444
368.4,-0.0329589999999999
368.6,-0.0322059999999999
368.8,-0.0312809999999998
369.00000000000006,-0.0328619999999999
369.2,-0.0345299999999999
369.4,-0.0346249999999999
369.6,-0.035441
369.8,-0.035455
370.00000000000006,-0.0350859999999999
370.2,-0.036966
370.4,-0.039258
370.6,-0.0397739999999999
370.8,-0.040553
371.00000000000006,-0.038926
371.2,-0.0362759999999999
371.4,-0.036701
371.6,-0.0377959999999999
371.8,-0.0372069999999999
372.00000000000006,-0.036129
372.2,-0.0368759999999999
372.4,-0.0362949999999999
372.6,-0.0362089999999999
372.8,-0.0370719999999999
373.00000000000006,-0.0382359999999999
373.2,-0.035919
373.4,-0.032844
373.6,-0.0312799999999999
373.8,-0.030496
374.00000000000006,-0.0327949999999999
374.2,-0.036586
374.4,-0.040658
374.6,-0.0424379999999999
374.8,-0.0441279999999999
375.00000000000006,-0.0441139999999999
375.2,-0.0439
375.4,-0.042024
375.6,-0.0377639999999999
375.8,-0.0343009999999999
376.00000000000006,-0.0312069999999999
376.2,-0.0294179999999999
376.4,-0.0287729999999999
376.6,-0.0327649999999999
376.8,-0.0352779999999999
377.00000000000006,-0.0383119999999999
377.2,-0.040202
377.4,-0.0417860000000001
377.6,-0.041948
377.8,-0.044416
378.00000000000006,-0.0457479999999999
378.2,-0.046631
378.4,-0.0459279999999999
378.6,-0.044265
378.8,-0.0405819999999998
379.00000000000006,-0.0380549999999999
379.2,-0.0364839999999999
379.4,-0.036059
379.6,-0.0358609999999999
379.8,-0.0371719999999999
380.00000000000006,-0.037951
380.2,-0.0388129999999999
380.4,-0.0385079999999999
380.6,-0.0385169999999999
380.8,-0.040005
381.00000000000006,-0.040855
381.2,-0.0425269999999999
381.4,-0.046173
381.6,-0.048961
381.8,-0.049484
382.00000000000006,-0.050572
382.2,-0.0483059999999999
382.4,-0.04716
382.6,-0.047349
382.8,-0.0458480000000001
383.00000000000006,-0.041822
383.2,-0.0406789999999999
383.4,-0.0395160000000001
383.6,-0.0374620000000001
383.8,-0.037419
384.00000000000006,-0.040399
384.2,-0.0428299999999999
384.4,-0.0453079999999999
384.6,-0.0475589999999999
384.8,-0.047061
385.00000000000006,-0.046348
385.2,-0.046399
385.4,-0.0438439999999999
385.6,-0.0402299999999999
385.8,-0.0381339999999998
386.00000000000006,-0.0361029999999999
386.2,-0.034718
386.4,-0.035582
386.6,-0.037795
386.8,-0.041136
387.00000000000006,-0.044907
387.2,-0.046704
387.4,-0.0484119999999999
387.6,-0.050197
387.8,-0.0509710000000001
388.00000000000006,-0.0516019999999999
388.2,-0.0528360000000001
388.4,-0.05258
388.6,-0.049484
388.8,-0.048996
389.00000000000006,-0.0467189999999999
389.2,-0.0435350000000001
389.4,-0.0404489999999999
389.6,-0.041268
389.8,-0.041714
390.00000000000006,-0.0422960000000001
390.2,-0.0441899999999999
390.4,-0.046119
390.6,-0.0464809999999999
390.8,-0.0456849999999999
391.00000000000006,-0.0444819999999999
391.2,-0.0417419999999999
391.4,-0.040229
391.6,-0.036961
391.8,-0.0337369999999999
392.00000000000006,-0.0326439999999998
392.2,-0.03454
392.4,-0.035932
392.6,-0.0391459999999999
392.8,-0.040178
393.00000000000006,-0.040823
393.2,-0.0419639999999998
393.4,-0.0436749999999999
393.6,-0.0450909999999999
393.8,-0.0492239999999999
394.00000000000006,-0.0503139999999999
394.2,-0.0482679999999999
394.4,-0.0443329999999999
394.6,-0.041749
394.8,-0.0382659999999999
395.00000000000006,-0.0374620000000001
395.2,-0.038834
395.4,-0.0412879999999999
395.6,-0.044534
395.8,-0.0459039999999999
396.00000000000006,-0.0455909999999999
396.2,-0.043155
396.4,-0.042391
396.6,-0.039671
396.8,-0.0379339999999999
397.00000000000006,-0.0393239999999999
397.2,-0.0389619999999999
397.4,-0.0367729999999999
397.6,-0.0365729999999999
397.8,-0.0370449999999999
398.00000000000006,-0.0377019999999999
398.2,-0.042818
398.4,-0.046769
398.6,-0.0463150000000001
398.8,-0.0459549999999999
399.00000000000006,-0.044704
399.2,-0.0423770000000001
399.4,-0.0420709999999999
399.6,-0.0458719999999999
399.8,-0.04763
400.00000000000006,-0.0472749999999999
400.2,-0.0462070000000001
400.4,-0.044785
400.6,-0.0423729999999999
400.8,-0.042211
401.00000000000006,-0.0433719999999999
401.2,-0.0433339999999999
401.4,-0.043878
401.6,-0.0451449999999999
401.8,-0.0459389999999999
402.00000000000006,-0.0450870000000001
402.2,-0.045679
402.4,-0.0461199999999999
402.6,-0.045298
402.8,-0.042194
403.00000000000006,-0.0410109999999999
403.2,-0.040408
403.4,-0.038796
403.6,-0.0379709999999999
403.8,-0.0397769999999999
404.00000000000006,-0.039787
404.2,-0.038772
404.4,-0.0391019999999999
404.6,-0.0399149999999999
404.8,-0.0406329999999999
405.00000000000006,-0.0414229999999999
405.2,-0.0420409999999999
405.4,-0.0433289999999999
405.6,-0.0444029999999999
405.8,-0.0463769999999998
406.00000000000006,-0.046313
406.2,-0.046594
406.4,-0.044386
406.6,-0.042289
406.8,-0.0406459999999999
407.00000000000006,-0.042388
407.2,-0.0417940000000001
407.4,-0.041622
407.6,-0.040909
407.8,-0.0399
408.00000000000006,-0.0384199999999999
408.2,-0.0381929999999999
408.4,-0.036658
408.6,-0.0363039999999998
408.8,-0.0361489999999999
409.00000000000006,-0.0384850000000001
409.2,-0.040785
409.4,-0.0448649999999999
409.6,-0.048591
409.8,-0.0507679999999999
410.00000000000006,-0.050964
410.2,-0.0505599999999999
410.4,-0.04885
410.6,-0.047595
410.8,-0.046057
411.00000000000006,-0.0430539999999999
411.2,-0.042583
411.4,-0.04108
411.6,-0.0390779999999999
411.8,-0.037638
412.00000000000006,-0.038953
412.2,-0.038945
412.4,-0.041735
412.6,-0.043749
412.8,-0.045171
413.00000000000006,-0.0442899999999999
413.2,-0.0439069999999999
413.4,-0.0432110000000001
413.6,-0.042578
413.8,-0.043466
414.00000000000006,-0.043258
414.2,-0.0440990000000001
414.4,-0.0447979999999998
414.6,-0.0453069999999999
414.8,-0.044691
415.00000000000006,-0.045662
415.2,-0.0451429999999999
415.4,-0.0446279999999998
415.6,-0.046164
415.8,-0.0479719999999999
416.00000000000006,-0.0498879999999999
416.2,-0.0509809999999999
416.4,-0.051546
416.6,-0.0494939999999999
416.8,-0.04746
417.00000000000006,-0.0444999999999999
417.2,-0.0407759999999999
417.4,-0.038575
417.6,-0.0364299999999999
417.8,-0.03492
418.00000000000006,-0.0357320000000001
418.2,-0.039584
418.4,-0.041957
418.6,-0.044248
418.8,-0.0440469999999999
419.00000000000006,-0.0430099999999999
419.2,-0.042297
419.4,-0.042415
419.6,-0.0421389999999999
419.8,-0.0429790000000001
420.00000000000006,-0.044605
420.2,-0.044208
420.4,-0.0428859999999999
420.6,-0.0412799999999999
420.8,-0.0418559999999998
421.00000000000006,-0.0410619999999999
421.2,-0.0411619999999999
421.4,-0.0419929999999999
421.6,-0.0438559999999998
421.8,-0.044677
422.00000000000006,-0.0453829999999999
422.2,-0.045247
422.4,-0.0452969999999999
422.6,-0.0451449999999999
422.8,-0.0445199999999998
423.00000000000006,-0.0429619999999999
423.2,-0.0427900000000001
423.4,-0.042111
423.6,-0.0431220000000001
423.8,-0.0425469999999998
424.00000000000006,-0.0417909999999999
424.2,-0.0410839999999999
424.4,-0.041155
424.6,-0.03939
424.8,-0.0400359999999999
425.00000000000006,-0.042502
425.2,-0.042672
425.4,-0.0424869999999999
425.6,-0.0446470000000001
425.8,-0.044769
426.00000000000006,-0.043322
426.2,-0.041978
426.4,-0.0413749999999999
426.6,-0.0388409999999999
426.8,-0.038575
427.00000000000006,-0.0393810000000001
427.2,-0.0413619999999999
427.4,-0.042613
427.6,-0.0430919999999999
427.8,-0.041806
428.00000000000006,-0.042335
428.2,-0.041687
428.4,-0.0409189999999999
428.6,-0.0395779999999998
428.8,-0.040148
429.00000000000006,-0.0387649999999999
429.2,-0.038799
429.4,-0.039957
429.6,-0.043042
429.8,-0.0464199999999999
430.00000000000006,-0.0507649999999999
430.2,-0.0509779999999999
430.4,-0.050089
430.6,-0.047633
430.8,-0.044542
431.00000000000006,-0.0415559999999999
431.2,-0.0443249999999999
431.4,-0.0463139999999999
431.6,-0.0494479999999999
431.8,-0.051698
432.00000000000006,-0.052043
432.2,-0.0496449999999999
432.4,-0.050127
432.6,-0.0497240000000001
432.8,-0.0490699999999999
433.00000000000006,-0.049511
433.2,-0.0502389999999999
433.4,-0.0476879999999999
433.6,-0.0471919999999999
433.8,-0.0485109999999999
434.00000000000006,-0.049493
434.2,-0.0491189999999999
434.4,-0.047827
434.6,-0.04536
434.8,-0.042863
435.00000000000006,-0.04292
435.2,-0.044105
435.4,-0.0466109999999999
435.6,-0.048408
435.8,-0.046874
436.00000000000006,-0.0441720000000001
436.2,-0.042666
436.4,-0.0415229999999999
436.6,-0.042211
436.8,-0.044453
437.00000000000006,-0.0440389999999999
437.2,-0.042602
437.4,-0.040985
437.6,-0.0398099999999999
437.8,-0.038286
438.00000000000006,-0.0383839999999999
438.2,-0.039357
438.4,-0.0416749999999999
438.6,-0.0426200000000001
438.8,-0.0447249999999999
439.00000000000006,-0.0458689999999999
439.2,-0.0459469999999999
439.4,-0.044307
439.6,-0.0434000000000001
439.8,-0.0413190000000001
440.00000000000006,-0.040591
440.2,-0.039536
440.4,-0.0397940000000001
440.6,-0.0405819999999998
440.8,-0.041317
441.00000000000006,-0.041395
441.2,-0.043193
441.4,-0.0444899999999999
441.6,-0.045522
441.8,-0.0473460000000001
442.00000000000006,-0.048475
442.2,-0.0496239999999998
442.4,-0.0508789999999999
442.6,-0.0498019999999999
442.8,-0.0499659999999999
443.00000000000006,-0.0513339999999999
443.2,-0.048958
443.4,-0.0470839999999999
443.6,-0.0483199999999999
443.8,-0.047649
444.00000000000006,-0.0472479999999999
444.2,-0.0505729999999999
444.4,-0.0510790000000001
444.6,-0.0494049999999999
444.8,-0.0488379999999999
445.00000000000006,-0.04865
445.2,-0.045206
445.4,-0.0458499999999999
445.6,-0.049317
445.8,-0.050426
446.00000000000006,-0.048294
446.2,-0.0491179999999999
446.4,-0.04888
446.6,-0.046191
446.8,-0.0457129999999998
447.00000000000006,-0.04695
447.2,-0.0484549999999999
447.4,-0.050486
447.6,-0.051752
447.8,-0.0509759999999999
448.00000000000006,-0.0501879999999999
448.2,-0.0481279999999999
448.4,-0.044872
448.6,-0.043379
448.8,-0.0427859999999999
449.00000000000006,-0.041492
449.2,-0.0417419999999999
449.4,-0.0421450000000001
449.6,-0.040815
449.8,-0.041968
450.00000000000006,-0.044292
450.2,-0.0453479999999999
450.4,-0.0473479999999999
450.6,-0.0503359999999999
450.8,-0.0494069999999999
451.00000000000006,-0.0487509999999999
451.2,-0.0496119999999999
451.4,-0.0476389999999999
451.6,-0.0452859999999999
451.8,-0.046299
452.00000000000006,-0.0464219999999999
452.2,-0.047341
452.4,-0.0497369999999999
452.6,-0.0498629999999999
452.8,-0.0473019999999999
453.00000000000006,-0.0466889999999999
453.2,-0.04376
453.4,-0.0416449999999999
453.6,-0.0416989999999999
453.8,-0.0422
454.00000000000006,-0.0418
454.2,-0.0425709999999999
454.4,-0.0436719999999999
454.6,-0.044815
454.8,-0.0467919999999999
455.00000000000006,-0.047741
455.2,-0.049838
455.4,-0.0506359999999999
455.6,-0.051817
455.8,-0.0521119999999999
456.00000000000006,-0.0533429999999999
456.2,-0.0542089999999999
456.4,-0.054928
456.6,-0.055614
456.8,-0.0570870000000001
457.00000000000006,-0.057355
457.2,-0.0545869999999999
457.4,-0.0522069999999998
457.6,-0.050715
457.8,-0.0496160000000001
458.00000000000006,-0.0511569999999999
458.2,-0.0532619999999999
458.4,-0.0531889999999999
458.6,-0.051781
458.8,-0.048318
459.00000000000006,-0.0452209999999999
459.2,-0.0440329999999999
459.4,-0.0450699999999999
459.6,-0.0444379999999999
459.8,-0.045951
460.00000000000006,-0.046232
460.2,-0.0460309999999999
460.4,-0.046175
460.6,-0.0476749999999999
460.8,-0.0470809999999999
461.00000000000006,-0.0479909999999998
461.2,-0.0481069999999999
461.4,-0.048845
461.6,-0.0497039999999999
461.8,-0.0514270000000001
462.00000000000006,-0.0501009999999999
462.2,-0.0500089999999999
462.4,-0.049636
462.6,-0.050032
462.8,-0.050847
463.00000000000006,-0.0517549999999999
463.2,-0.049617
463.4,-0.0467280000000001
463.6,-0.0457240000000001
463.8,-0.04403
464.00000000000006,-0.0432999999999998
464.2,-0.045681
464.4,-0.047382
464.6,-0.047166
464.8,-0.047196
465.00000000000006,-0.0471889999999999
465.2,-0.045466
465.4,-0.0463519999999999
465.6,-0.045322
465.8,-0.0433730000000001
466.00000000000006,-0.0415639999999999
466.2,-0.0402169999999999
466.4,-0.0370989999999999
466.6,-0.0372479999999999
466.8,-0.039255
467.00000000000006,-0.0399799999999999
467.2,-0.0423489999999999
467.4,-0.045093
467.6,-0.0461990000000001
467.8,-0.0475000000000001
468.00000000000006,-0.0484949999999999
468.2,-0.0472159999999999
468.4,-0.0461879999999998
468.6,-0.0445759999999999
468.8,-0.042845
469.00000000000006,-0.043052
469.2,-0.046148
469.4,-0.0483769999999998
469.6,-0.0497989999999999
469.8,-0.0506359999999999
470.00000000000006,-0.049925
470.2,-0.0485469999999998
470.4,-0.048094
470.6,-0.047946
470.8,-0.0483409999999999
471.00000000000006,-0.0490859999999999
471.2,-0.0499709999999999
471.4,-0.048049
471.6,-0.048078
471.8,-0.0484569999999999
472.00000000000006,-0.048208
472.2,-0.045576
472.4,-0.0465839999999999
472.6,-0.04682
472.8,-0.0451989999999999
473.00000000000006,-0.0466169999999999
473.2,-0.048812
473.4,-0.050105
473.6,-0.0501519999999999
473.8,-0.0510459999999999
474.00000000000006,-0.050132
474.2,-0.0503690000000001
474.4,-0.050496
474.6,-0.0516149999999999
474.8,-0.0516779999999998
475.00000000000006,-0.0507379999999999
475.2,-0.0490809999999999
475.4,-0.048181
475.6,-0.047557
475.8,-0.0485979999999999
476.00000000000006,-0.049063
476.2,-0.047099
476.4,-0.045244
476.6,-0.043849
476.8,-0.0436479999999999
477.00000000000006,-0.043557
477.2,-0.047438
477.4,-0.049379
477.6,-0.05091
477.8,-0.050672
478.00000000000006,-0.0524299999999999
478.2,-0.050624
478.4,-0.0492239999999999
478.6,-0.0479609999999999
478.8,-0.0468949999999999
479.00000000000006,-0.045717
479.2,-0.04566
479.4,-0.045817
479.6,-0.045347
479.8,-0.047263
480.00000000000006,-0.048032
480.2,-0.048731
480.4,-0.0512449999999999
480.6,-0.0530330000000001
480.8,-0.0503629999999999
481.00000000000006,-0.04881
481.2,-0.0479279999999999
481.4,-0.045549
481.6,-0.043385
481.8,-0.0428679999999999
482.00000000000006,-0.0430140000000001
482.2,-0.0448159999999999
482.4,-0.0465549999999999
482.6,-0.0469170000000001
482.8,-0.0483519999999999
483.00000000000006,-0.048637
483.2,-0.0474019999999999
483.4,-0.046672
483.6,-0.0476589999999998
483.8,-0.048629
484.00000000000006,-0.0502610000000001
484.2,-0.052893
484.4,-0.0531589999999999
484.6,-0.0540290000000001
484.8,-0.0543119999999999
485.00000000000006,-0.0531559999999999
485.2,-0.050632
485.4,-0.049881
485.6,-0.0493719999999999
485.8,-0.050049
486.00000000000006,-0.052073
486.2,-0.0527729999999999
486.4,-0.053266
486.6,-0.0532259999999999
486.8,-0.0504819999999999
487.00000000000006,-0.0472969999999999
487.2,-0.046216
487.4,-0.0460979999999999
487.6,-0.0462530000000001
487.8,-0.0474229999999999
488.00000000000006,-0.047965
488.2,-0.047663
488.4,-0.0464979999999999
488.6,-0.0465819999999999
488.8,-0.0474000000000001
489.00000000000006,-0.050213
489.2,-0.0522119999999999
489.4,-0.0534559999999999
489.6,-0.052891
489.8,-0.0532379999999998
490.00000000000006,-0.0509399999999999
490.2,-0.0511349999999999
490.4,-0.050407
490.6,-0.051077
490.8,-0.0493209999999999
491.00000000000006,-0.050488
491.2,-0.051425
491.4,-0.055147
491.6,-0.0567429999999999
491.8,-0.0580359999999999
492.00000000000006,-0.0574269999999998
492.2,-0.0567709999999999
492.4,-0.0538829999999999
492.6,-0.05169
492.8,-0.0503150000000001
493.00000000000006,-0.050068
493.2,-0.0491569999999998
493.4,-0.048437
493.6,-0.0470459999999999
493.8,-0.0466979999999999
494.00000000000006,-0.048016
494.2,-0.0499529999999999
494.4,-0.0503439999999999
494.6,-0.0512699999999999
494.8,-0.0511909999999999
495.00000000000006,-0.048799
495.2,-0.0459519999999999
495.4,-0.0475669999999999
495.6,-0.0490680000000001
495.8,-0.054386
496.00000000000006,-0.0595719999999999
496.2,-0.062653
496.4,-0.0624949999999999
496.6,-0.0633269999999999
496.8,-0.0597419999999999
497.00000000000006,-0.056068
497.2,-0.0519419999999999
497.4,-0.0502059999999999
497.6,-0.0487269999999999
497.8,-0.0489939999999999
498.00000000000006,-0.048747
498.2,-0.050732
498.4,-0.052251
498.6,-0.053355
498.8,-0.0540359999999999
499.00000000000006,-0.0534509999999999
499.2,-0.051215
499.4,-0.048726
499.6,-0.046178
499.8,-0.0450049999999999
500.00000000000006,-0.046113
500.2,-0.0483420000000001
500.4,-0.049908
500.6,-0.052807
500.8,-0.055949
501.00000000000006,-0.0583139999999999
501.2,-0.0598179999999999
501.4,-0.059579
501.6,-0.058529
501.8,-0.0563499999999999
502.00000000000006,-0.0554609999999999
502.2,-0.0545770000000001
502.4,-0.054035
502.6,-0.053125
502.8,-0.0532669999999999
503.00000000000006,-0.0527629999999998
503.2,-0.050332
503.4,-0.049433
503.6,-0.0486819999999998
503.8,-0.04817
504.00000000000006,-0.0485869999999999
504.2,-0.051036
504.4,-0.052963
504.6,-0.054615
504.8,-0.05499
505.00000000000006,-0.052853
505.2,-0.0512030000000001
505.4,-0.049938
505.6,-0.049236
505.8,-0.04857
506.00000000000006,-0.049268
506.2,-0.050138
506.4,-0.0521910000000001
506.6,-0.053852
506.8,-0.054292
507.00000000000006,-0.0549249999999998
507.2,-0.057325
507.4,-0.0582819999999999
507.6,-0.0595000000000001
507.8,-0.0596239999999999
508.00000000000006,-0.058731
508.2,-0.0563739999999999
508.4,-0.0554399999999999
508.6,-0.053644
508.8,-0.0543299999999999
509.00000000000006,-0.0544849999999998
509.2,-0.0548269999999999
509.4,-0.0534699999999999
509.6,-0.0530779999999999
509.8,-0.052704
510.00000000000006,-0.0538929999999999
510.2,-0.055603
510.4,-0.0563439999999999
510.6,-0.055854
510.8,-0.0543359999999999
511.0,-0.053973
511.2000000000001,-0.0536779999999998
511.4000000000001,-0.0558050000000001
511.5999999999999,-0.0563249999999999
511.8,-0.057514
512.0,-0.0561100000000001
512.2,-0.0550539999999999
512.4000000000001,-0.0527409999999999
512.5999999999999,-0.054402
512.8,-0.055261
513.0,-0.055063
513.2,-0.0553429999999999
513.4000000000001,-0.0563709999999999
513.5999999999999,-0.0539989999999999
513.8,-0.0503819999999999
514.0,-0.049763
514.2,-0.049962
514.4000000000001,-0.051641
514.5999999999999,-0.05441
514.8,-0.0572099999999999
515.0,-0.05776
515.2,-0.056278
515.4000000000001,-0.0538389999999999
515.5999999999999,-0.0523109999999999
515.8,-0.05383
516.0,-0.0547379999999999
516.2,-0.0565500000000001
516.4000000000001,-0.0566739999999998
516.5999999999999,-0.057954
516.8,-0.0578099999999999
517.0,-0.059293
517.2,-0.0591399999999999
517.4000000000001,-0.0609239999999999
517.5999999999999,-0.060421
517.8,-0.05648
518.0,-0.0533269999999999
518.2,-0.052084
518.4000000000001,-0.0511490000000001
518.5999999999999,-0.0487109999999999
518.8,-0.049331
519.0,-0.04983
519.2,-0.04878
519.4000000000001,-0.0461659999999999
519.5999999999999,-0.0460819999999999
519.8,-0.046791
520.0,-0.0469219999999999
520.2,-0.0483759999999999
520.4000000000001,-0.0480290000000001
520.5999999999999,-0.0492619999999999
520.8,-0.051382
521.0,-0.0532349999999999
521.2,-0.0542329999999999
521.4000000000001,-0.057957
521.5999999999999,-0.0601560000000001
521.8,-0.0604579999999999
522.0,-0.0605219999999999
522.2,-0.0589459999999999
522.4000000000001,-0.0565979999999999
522.5999999999999,-0.055007
522.8,-0.0544569999999999
523.0,-0.05465
523.2,-0.0543519999999999
523.4000000000001,-0.055298
523.5999999999999,-0.0551209999999999
523.8,-0.0549649999999999
524.0,-0.0529749999999999
524.2,-0.0537510000000001
524.4000000000001,-0.0533300000000001
524.5999999999999,-0.0539750000000001
524.8,-0.0533339999999999
525.0,-0.053301
525.2,-0.0516319999999999
525.4000000000001,-0.0496049999999999
525.5999999999999,-0.0487439999999999
525.8,-0.0499259999999999
526.0,-0.0527709999999999
526.2,-0.054553
526.4000000000001,-0.0561059999999999
526.5999999999999,-0.054829
526.8,-0.0543789999999999
527.0,-0.055241
527.2,-0.056815
527.4000000000001,-0.05735
527.5999999999999,-0.056864
527.8,-0.0540099999999998
528.0,-0.049987
528.2,-0.0504249999999999
528.4000000000001,-0.0513779999999999
528.5999999999999,-0.055099
528.8,-0.0586580000000001
529.0,-0.0615449999999999
529.2,-0.059614
529.4000000000001,-0.059814
529.5999999999999,-0.0588599999999999
529.8,-0.058132
530.0,-0.05817
530.2,-0.0610269999999999
530.4000000000001,-0.0594449999999999
530.5999999999999,-0.0572049999999999
530.8,-0.057098
531.0,-0.0561309999999999
531.2,-0.0532840000000001
531.4000000000001,-0.0540519999999999
531.5999999999999,-0.0552429999999999
531.8,-0.0540369999999998
532.0,-0.0543389999999999
532.2,-0.0547839999999999
532.4000000000001,-0.054262
532.5999999999999,-0.0538909999999999
532.8,-0.053387
533.0,-0.0526189999999999
533.2,-0.0530520000000001
533.4000000000001,-0.054256
533.5999999999999,-0.055301
533.8,-0.0573619999999999
534.0,-0.057417
534.2,-0.0569679999999999
534.4000000000001,-0.0548589999999999
534.5999999999999,-0.0543610000000001
534.8,-0.0531479999999999
535.0,-0.0549189999999999
535.2,-0.0561229999999999
535.4000000000001,-0.057045
535.5999999999999,-0.0554399999999999
535.8,-0.055784
536.0,-0.054578
536.2,-0.054723
536.4000000000001,-0.056826
536.5999999999999,-0.059412
536.8,-0.059071
537.0,-0.0592429999999999
537.2,-0.058173
537.4000000000001,-0.0575209999999999
537.5999999999999,-0.0573019999999999
537.8,-0.0579449999999999
538.0,-0.0565189999999999
538.2,-0.056035
538.4000000000001,-0.0545029999999999
538.5999999999999,-0.0543929999999999
538.8,-0.054848
539.0,-0.0582869999999999
539.2,-0.0603610000000001
539.4000000000001,-0.06224
539.5999999999999,-0.0626279999999999
539.8,-0.0633729999999999
540.0,-0.0632729999999999
540.2,-0.061457
540.4000000000001,-0.0583409999999999
540.5999999999999,-0.057206
540.8,-0.055962
541.0,-0.0530509999999999
541.2,-0.049833
541.4000000000001,-0.0510699999999999
541.5999999999999,-0.0512909999999999
541.8,-0.051274
542.0,-0.052229
542.2,-0.0553509999999999
542.4000000000001,-0.0561309999999999
542.5999999999999,-0.0553639999999999
542.8,-0.0546269999999999
543.0,-0.053565
543.2,-0.054464
543.4000000000001,-0.0543279999999999
543.5999999999999,-0.054983
543.8,-0.0547109999999999
544.0,-0.0541679999999999
544.2,-0.0535229999999999
544.4000000000001,-0.054796
544.5999999999999,-0.0544819999999999
544.8,-0.0536350000000001
545.0,-0.053247
545.2,-0.0520370000000001
545.4000000000001,-0.0492969999999999
545.5999999999999,-0.0488059999999999
545.8,-0.050078
546.0,-0.0513999999999998
546.2,-0.0522549999999999
546.4000000000001,-0.0547550000000001
546.5999999999999,-0.055943
546.8,-0.057002
547.0,-0.0577160000000001
547.2,-0.056904
547.4000000000001,-0.0541629999999999
547.5999999999999,-0.0532220000000001
547.8,-0.052434
548.0,-0.053539
548.2,-0.055514
548.4000000000001,-0.0570109999999999
548.5999999999999,-0.055654
548.8,-0.053897
549.0,-0.050488
549.2,-0.047025
549.4000000000001,-0.044661
549.5999999999999,-0.045266
549.8,-0.04682
550.0,-0.046726
550.2,-0.046524
550.4000000000001,-0.0465189999999999
550.5999999999999,-0.0468239999999999
550.8,-0.0470749999999999
551.0,-0.049174
551.2,-0.051163
551.4000000000001,-0.0545899999999999
551.5999999999999,-0.0575289999999999
551.8,-0.0606169999999999
552.0,-0.063182
552.2,-0.0650949999999999
552.4000000000001,-0.065198
552.5999999999999,-0.0636829999999999
552.8,-0.0595149999999999
553.0,-0.0559750000000001
553.2,-0.054202
553.4000000000001,-0.05288
553.5999999999999,-0.0538339999999999
553.8,-0.057762
554.0,-0.0601849999999999
554.2,-0.0614339999999999
554.4000000000001,-0.0627109999999999
554.5999999999999,-0.0621059999999999
554.8,-0.0602389999999999
555.0,-0.058877
555.2,-0.057161
555.4000000000001,-0.055196
555.5999999999999,-0.056526
555.8,-0.056149
556.0,-0.0565850000000001
556.2,-0.0594959999999999
556.4000000000001,-0.063719
556.5999999999999,-0.0637639999999999
556.8,-0.065463
557.0,-0.0681819999999999
557.2,-0.0672269999999999
557.4000000000001,-0.064429
557.5999999999999,-0.063163
557.8,-0.06112
558.0,-0.058168
558.2,-0.0573619999999999
558.4000000000001,-0.058445
558.5999999999999,-0.0587740000000001
558.8,-0.058615
559.0,-0.0572349999999999
559.2,-0.0562009999999999
559.4000000000001,-0.0554779999999999
559.5999999999999,-0.054013
559.8,-0.053255
560.0,-0.05464
560.2,-0.0544770000000001
560.4000000000001,-0.0536909999999999
560.5999999999999,-0.0542899999999999
560.8,-0.0549029999999999
561.0,-0.0542530000000001
561.2,-0.054297
561.4000000000001,-0.052475
561.5999999999999,-0.051126
561.8,-0.0520229999999999
562.0,-0.053903
562.2,-0.056456
562.4000000000001,-0.0594989999999999
562.5999999999999,-0.0619639999999999
562.8,-0.0613239999999999
563.0,-0.0587789999999999
563.2,-0.0575559999999999
563.4000000000001,-0.0573799999999999
563.5999999999999,-0.055682
563.8,-0.0572779999999999
564.0,-0.0581119999999999
564.2,-0.058969
564.4000000000001,-0.0591060000000001
564.5999999999999,-0.061369
564.8,-0.0598449999999999
565.0,-0.0602739999999999
565.2,-0.0589049999999999
565.4000000000001,-0.057816
565.5999999999999,-0.056875
565.8,-0.0572919999999999
566.0,-0.0575270000000001
566.2,-0.0578689999999999
566.4000000000001,-0.0600199999999999
566.5999999999999,-0.0609059999999999
566.8,-0.0626009999999999
567.0,-0.062737
567.2,-0.063064
567.4000000000001,-0.0606249999999999
567.5999999999999,-0.0600909999999998
567.8,-0.0566169999999999
568.0,-0.052629
568.2,-0.0510759999999999
568.4000000000001,-0.0488159999999999
568.5999999999999,-0.0457479999999999
568.8,-0.0449349999999999
569.0,-0.0462169999999999
569.2,-0.048869
569.4000000000001,-0.05383
569.5999999999999,-0.057296
569.8,-0.0603819999999999
570.0,-0.0626809999999999
570.2,-0.061728
570.4000000000001,-0.0599719999999999
570.5999999999999,-0.0589729999999999
570.8,-0.057973
571.0,-0.057226
571.2,-0.057098
571.4000000000001,-0.0591619999999999
571.5999999999999,-0.0614559999999999
571.8,-0.0647089999999999
572.0,-0.0683149999999999
572.2,-0.0674639999999999
572.3999999999999,-0.0642389999999999
572.5999999999999,-0.060939
572.8,-0.0587169999999999
573.0,-0.055477
573.2,-0.058254
573.3999999999999,-0.0608379999999999
573.5999999999999,-0.061585
573.8,-0.061369
574.0,-0.0616099999999999
574.2,-0.0587059999999999
574.3999999999999,-0.0581769999999999
574.5999999999999,-0.0576589999999999
574.8,-0.0573749999999999
575.0,-0.057606
575.2,-0.0590759999999999
575.3999999999999,-0.0573259999999999
575.5999999999999,-0.0582629999999999
575.8,-0.0586869999999999
576.0,-0.0606919999999999
576.2,-0.0631489999999999
576.3999999999999,-0.065971
576.5999999999999,-0.0678419999999999
576.8,-0.0692410000000001
577.0,-0.0685739999999999
577.2,-0.0680179999999999
577.3999999999999,-0.067925
577.5999999999999,-0.0669630000000001
577.8,-0.0666379999999999
578.0,-0.066564
578.2,-0.0662529999999999
578.3999999999999,-0.065371
578.5999999999999,-0.0638430000000001
578.8,-0.062114
579.0,-0.0588079999999999
579.2,-0.055825
579.3999999999999,-0.053962
579.5999999999999,-0.052197
579.8,-0.0510250000000001
580.0,-0.051968
580.2,-0.0512639999999999
580.3999999999999,-0.050791
580.5999999999999,-0.0531759999999998
580.8,-0.055474
581.0,-0.057501
581.2,-0.059649
581.3999999999999,-0.059962
581.5999999999999,-0.057946
581.8,-0.056715
582.0,-0.0564649999999999
582.2,-0.057096
582.3999999999999,-0.0599119999999999
582.5999999999999,-0.062232
582.8,-0.061083
583.0,-0.059789
583.2,-0.0564629999999999
583.3999999999999,-0.0538819999999999
583.5999999999999,-0.052235
583.8,-0.0529479999999999
584.0,-0.0528630000000001
584.2,-0.0549710000000001
584.3999999999999,-0.057563
584.5999999999999,-0.0601739999999999
584.8,-0.0619419999999999
585.0,-0.063239
585.2,-0.062902
585.3999999999999,-0.0610619999999999
585.5999999999999,-0.059082
585.8,-0.0564899999999999
586.0,-0.054856
586.2,-0.0545439999999999
586.3999999999999,-0.0525310000000001
586.5999999999999,-0.0523420000000001
586.8,-0.0551669999999999
587.0,-0.0558119999999999
587.2,-0.0554730000000001
587.3999999999999,-0.0568729999999999
587.5999999999999,-0.058205
587.8,-0.05726
588.0,-0.057984
588.2,-0.059595
588.3999999999999,-0.059263
588.5999999999999,-0.058329
588.8,-0.0584649999999999
589.0,-0.058856
589.2,-0.059576
589.3999999999999,-0.061924
589.5999999999999,-0.0627709999999999
589.8,-0.06294
590.0,-0.063595
590.2,-0.0624899999999999
590.3999999999999,-0.0607930000000001
590.5999999999999,-0.059401
590.8,-0.057757
591.0,-0.055012
591.2,-0.056173
591.3999999999999,-0.056764
591.5999999999999,-0.0576859999999999
591.8,-0.059209
592.0,-0.058499
592.2,-0.055064
592.3999999999999,-0.054119
592.5999999999999,-0.054985
592.8,-0.054896
593.0,-0.0584789999999999
593.2,-0.0632349999999999
593.3999999999999,-0.0644219999999999
593.5999999999999,-0.063207
593.8,-0.064759
594.0,-0.06417
594.2,-0.062645
594.3999999999999,-0.0629319999999999
594.5999999999999,-0.0636149999999999
594.8,-0.0620039999999999
595.0,-0.0615829999999999
595.2,-0.0608439999999999
595.3999999999999,-0.061606
595.5999999999999,-0.06257
595.8,-0.063118
596.0,-0.0654729999999998
596.2,-0.067503
596.3999999999999,-0.06678
596.5999999999999,-0.0660119999999999
596.8,-0.067325
597.0,-0.0658389999999999
597.2,-0.0649269999999999
597.3999999999999,-0.063979
597.5999999999999,-0.0615730000000001
