Time (s),Shift (nm)
0.0,0.0
0.2000000000000454,0.00062
0.4000000000000341,0.0001870000000003
0.6000000000000227,9.300000000012076e-05
0.8000000000000114,0.000944
1.0,0.0027140000000001
1.2000000000000457,0.0047830000000002
1.400000000000034,0.0048750000000001
1.6000000000000227,0.0045100000000002
1.8000000000000114,0.0041290000000002
2.0,0.001621
2.200000000000045,-0.0002759999999999
2.400000000000034,-0.0014179999999996
2.6000000000000227,-0.0019939999999998
2.800000000000012,-0.0032929999999997
3.0,-0.0027399999999997
3.200000000000045,-0.0026659999999996
3.400000000000034,-0.0030599999999996
3.6000000000000227,-0.0057059999999999
3.8000000000000114,-0.0090469999999998
4.0,-0.0107529999999997
4.2000000000000455,-0.0101809999999997
4.400000000000034,-0.0073739999999999
4.600000000000023,-0.0025389999999996
4.800000000000011,0.002145
5.0,0.004823
5.2000000000000455,0.0046730000000003
5.400000000000034,0.0052389999999999
5.600000000000023,0.004302
5.800000000000011,0.0037230000000003
6.0,0.002561
6.2000000000000455,0.0010210000000001
6.400000000000034,-0.0011849999999999
6.600000000000023,-0.0017239999999998
6.800000000000011,-0.0010439999999998
7.0,-9.299999999967667e-05
7.2000000000000455,0.0028369999999999
7.400000000000034,0.0049140000000003
7.600000000000023,0.007784
7.800000000000011,0.0085420000000002
8.0,0.009519
8.200000000000045,0.010361
8.400000000000034,0.009862
8.600000000000023,0.0080180000000003
8.800000000000011,0.0063970000000002
9.0,0.0034270000000002
9.200000000000044,-0.0003009999999998
9.400000000000034,-0.0021679999999997
9.600000000000025,-0.0025249999999998
9.800000000000011,-0.0019209999999998
10.0,-0.0002139999999997
10.200000000000044,0.0013910000000003
10.400000000000034,0.0038810000000002
10.600000000000025,0.0053330000000002
10.800000000000011,0.0072910000000003
11.0,0.0083999999999999
11.200000000000044,0.008998
11.400000000000034,0.006043
11.600000000000025,0.002701
11.800000000000011,-0.0021909999999998
12.0,-0.0041989999999998
12.200000000000044,-0.0044689999999998
12.400000000000034,-0.0029839999999996
12.600000000000025,-0.002834
12.800000000000011,-0.0016899999999999
13.0,-0.0018949999999997
13.200000000000044,-0.0030629999999995
13.400000000000034,-0.0026819999999996
13.600000000000025,-0.0017279999999999
13.800000000000011,0.0007559999999999
14.0,0.003435
14.200000000000044,0.0057249999999999
14.400000000000034,0.0042720000000002
14.600000000000025,0.0043280000000001
14.800000000000011,0.004283
15.0,0.0042530000000002
15.200000000000044,0.0021440000000003
15.400000000000034,0.0020999999999999
15.600000000000025,0.0007580000000002
15.800000000000011,-0.0007599999999996
16.0,-0.0021589999999998
16.200000000000045,0.000699
16.400000000000034,0.0031980000000002
16.600000000000023,0.0055850000000003
16.80000000000001,0.0060740000000003
17.0,0.0058610000000003
17.200000000000045,0.003441
17.400000000000034,0.0015520000000002
17.600000000000023,0.0003790000000001
17.80000000000001,0.000302
18.0,0.0014350000000002
18.200000000000045,0.002596
18.400000000000038,0.0044570000000003
18.600000000000023,0.0057089999999999
18.80000000000001,0.0078530000000003
19.0,0.0074270000000002
19.200000000000045,0.0055810000000002
19.400000000000038,0.0039100000000003
19.600000000000023,0.0032810000000003
19.80000000000001,0.003209
20.0,0.0036470000000004
20.200000000000045,0.0049420000000002
20.400000000000038,0.0048340000000002
20.600000000000023,0.004172
20.80000000000001,0.0025080000000001
21.0,0.0008250000000002
21.200000000000045,0.000893
21.400000000000038,0.0014030000000002
21.600000000000023,0.0025000000000003
21.80000000000001,0.0026700000000001
22.0,0.0028019999999999
22.200000000000045,0.001811
22.400000000000038,0.001999
22.600000000000023,0.0020360000000003
22.80000000000001,0.0020900000000003
23.0,0.0019490000000002
23.200000000000045,0.0029410000000003
23.400000000000038,0.0026240000000004
23.600000000000023,0.0033549999999999
23.80000000000001,0.0038020000000003
24.0,0.0042740000000001
24.200000000000045,0.0045380000000001
24.400000000000038,0.0061650000000001
24.600000000000023,0.0060000000000002
24.80000000000001,0.0053020000000003
25.0,0.0054640000000003
25.200000000000045,0.0058340000000001
25.400000000000038,0.005808
25.600000000000023,0.0071660000000002
25.80000000000001,0.0080219999999999
26.0,0.0075549999999999
26.200000000000045,0.0062660000000001
26.400000000000038,0.0044950000000003
26.600000000000023,0.001106
26.80000000000001,0.0004470000000003
27.0,0.0013119999999999
27.200000000000045,0.002205
27.400000000000038,0.0025710000000001
27.600000000000023,0.002091
27.80000000000001,0.0008099999999999
28.0,-0.0003059999999996
28.200000000000045,-0.0003859999999997
28.400000000000038,-0.00041
28.600000000000023,0.0009890000000001
28.80000000000001,0.0016390000000003
29.0,0.0022930000000003
29.200000000000045,0.001373
29.400000000000038,0.0010150000000002
29.600000000000023,0.0023340000000002
29.80000000000001,0.0031540000000003
30.0,0.0032020000000003
30.200000000000045,0.0041830000000002
30.400000000000038,0.0043740000000003
30.600000000000023,0.0036490000000002
30.80000000000001,0.003959
31.0,0.0042790000000003
31.200000000000045,0.0038949999999999
31.400000000000038,0.004439
31.600000000000023,0.004035
31.80000000000001,0.00421
32.0,0.0036810000000002
32.200000000000045,0.0036720000000003
32.400000000000034,0.0046280000000002
32.60000000000002,0.0054980000000002
32.80000000000001,0.0052400000000001
33.0,0.0064250000000001
33.200000000000045,0.0067500000000002
33.400000000000034,0.0042030000000004
33.60000000000002,0.0021630000000003
33.80000000000001,-0.0002339999999998
34.0,-0.0013719999999999
34.200000000000045,-0.002256
34.400000000000034,-0.0013959999999997
34.60000000000002,-0.0010769999999999
34.80000000000001,4.000000000115023e-06
35.0,0.0012030000000002
35.200000000000045,0.0037670000000002
35.400000000000034,0.004277
35.60000000000002,0.0051360000000002
35.80000000000001,0.0060200000000003
36.0,0.0051200000000002
36.200000000000045,0.0026960000000002
36.400000000000034,0.0022230000000003
36.60000000000002,0.0024350000000001
36.80000000000001,0.0010480000000003
37.0,-0.0010349999999998
37.200000000000045,-0.0025679999999996
37.400000000000034,-0.0047369999999999
37.60000000000002,-0.0057229999999997
37.80000000000001,-0.0050019999999997
38.0,-0.0027789999999998
38.200000000000045,-0.0003879999999996
38.400000000000034,-0.0003629999999996
38.60000000000002,-0.0011409999999996
38.80000000000001,-0.0013329999999998
39.0,-0.0019719999999998
39.200000000000045,-0.0037069999999999
39.400000000000034,-0.0033149999999997
39.60000000000002,-0.0031379999999998
39.80000000000001,-0.0036059999999999
40.0,-0.0045359999999998
40.200000000000045,-0.0055229999999997
40.400000000000034,-0.0046309999999998
40.60000000000002,-0.0043259999999998
40.80000000000001,-0.0038839999999997
41.0,-0.0030509999999996
41.200000000000045,-0.0008429999999997
41.400000000000034,0.0005939999999999
41.60000000000002,0.0009920000000001
41.80000000000001,0.0017880000000003
42.0,0.0018489999999999
42.200000000000045,0.0019949999999999
42.400000000000034,0.0025570000000003
42.60000000000002,0.0039570000000002
42.80000000000001,0.0037540000000002
43.0,0.0036880000000003
43.200000000000045,0.0031600000000002
43.400000000000034,0.0009940000000003
43.60000000000002,-0.00129
43.80000000000001,-0.0012239999999996
44.0,-0.000966
44.200000000000045,-0.001595
44.400000000000034,-0.0018099999999998
44.60000000000002,-0.0024189999999997
44.80000000000001,-0.0037009999999999
45.0,-0.0038239999999998
45.200000000000045,-0.0035969999999996
45.400000000000034,-0.0016519999999999
45.60000000000002,-0.0009679999999998
45.80000000000001,-0.0001279999999996
46.0,0.0013580000000001
46.200000000000045,0.0028990000000002
46.400000000000034,0.0022000000000002
46.60000000000002,0.0025910000000002
46.80000000000001,0.002294
47.0,0.0020610000000003
47.200000000000045,0.0034800000000001
47.400000000000034,0.0038710000000001
47.60000000000002,0.0045209999999999
47.80000000000001,0.0048540000000003
48.0,0.0040900000000001
48.200000000000045,0.0028700000000001
48.400000000000034,0.0026290000000002
48.60000000000002,0.0039830000000002
48.80000000000001,0.0057100000000001
49.0,0.0051580000000002
49.200000000000045,0.002091
49.400000000000034,0.0003280000000001
49.60000000000002,-0.0020869999999999
49.80000000000001,-0.0044149999999998
50.0,-0.0030889999999996
50.200000000000045,-0.0003349999999997
50.400000000000034,0.000957
50.60000000000002,3.900000000012227e-05
50.80000000000001,-0.0007589999999999
51.0,-0.0031139999999996
51.200000000000045,-0.0049439999999996
51.400000000000034,-0.0052859999999999
51.60000000000002,-0.0048139999999996
51.80000000000001,-0.0034179999999999
52.0,-0.00339
52.200000000000045,-0.0038079999999998
52.400000000000034,-0.0049819999999995
52.60000000000002,-0.0041719999999996
52.80000000000001,-0.0042289999999995
53.0,-0.0013139999999998
53.200000000000045,0.0020040000000003
53.400000000000034,0.0042110000000001
53.60000000000002,0.004569
53.80000000000001,0.0034070000000001
54.0,-0.0007509999999997
54.200000000000045,-0.0052229999999999
54.400000000000034,-0.0064519999999999
54.60000000000002,-0.0072159999999996
54.80000000000001,-0.0053779999999998
55.0,-0.0032339999999999
55.200000000000045,-0.0005279999999996
55.400000000000034,0.0010670000000003
55.60000000000002,0.0003800000000002
55.80000000000001,-0.0033349999999998
56.0,-0.0047419999999998
56.200000000000045,-0.0059219999999999
56.400000000000034,-0.0080689999999998
56.60000000000002,-0.0066259999999997
56.80000000000001,-0.0024069999999998
57.0,0.000423
57.200000000000045,0.001541
57.400000000000034,0.0027820000000002
57.60000000000002,0.0028860000000001
57.80000000000007,0.0027280000000002
58.0,0.0017090000000004
58.200000000000045,0.000474
58.39999999999998,-0.0008729999999999
58.60000000000002,-0.0013779999999998
58.80000000000007,-0.0031399999999996
59.0,-0.0029129999999999
59.200000000000045,-0.0016059999999997
59.39999999999998,-0.0009139999999998
59.60000000000002,-0.002367
59.80000000000007,-0.0026749999999999
60.0,-0.0034829999999996
60.200000000000045,-0.0047709999999998
60.39999999999998,-0.0051009999999998
60.60000000000002,-0.0035289999999998
60.80000000000007,-0.0018349999999998
61.0,-0.0014669999999998
61.200000000000045,-0.0013339999999999
61.39999999999998,-0.0023059999999999
61.60000000000002,-0.0038619999999998
61.80000000000007,-0.0057369999999998
62.0,-0.0059589999999998
62.200000000000045,-0.0051869999999998
62.39999999999998,-0.0031819999999997
62.60000000000002,-0.0014859999999998
62.80000000000007,-0.0007279999999996
63.0,1.100000000020529e-05
63.200000000000045,0.0012780000000001
63.39999999999998,0.0019650000000002
63.60000000000002,0.0033590000000001
63.80000000000007,0.0029980000000002
64.0,0.0020030000000001
64.20000000000005,-0.0008499999999997
64.39999999999998,-0.0017129999999996
64.60000000000002,-0.0037719999999996
64.80000000000007,-0.003727
65.0,-0.0019289999999996
65.20000000000005,-0.0009059999999996
65.39999999999998,-0.0024849999999996
65.60000000000002,-0.003193
65.80000000000007,-0.0032259999999997
66.0,-0.0049559999999999
66.20000000000005,-0.0050899999999995
66.39999999999998,-0.0049059999999996
66.60000000000002,-0.0052219999999998
66.80000000000007,-0.0058509999999998
67.0,-0.0055169999999997
67.20000000000005,-0.0049189999999996
67.39999999999998,-0.0045469999999996
67.60000000000002,-0.0038959999999996
67.80000000000007,-0.0039509999999998
68.0,-0.0037819999999997
68.20000000000005,-0.0030989999999997
68.39999999999998,-0.001271
68.60000000000002,0.0004150000000002
68.80000000000007,0.0014750000000001
69.0,0.0018850000000001
69.20000000000005,0.0012980000000002
69.39999999999998,-0.0007179999999999
69.60000000000002,-0.0032299999999998
69.80000000000007,-0.0048259999999999
70.0,-0.007495
70.20000000000005,-0.0092929999999999
70.39999999999998,-0.0089579999999998
70.60000000000002,-0.0059
70.80000000000007,-0.0046919999999999
71.0,-0.002313
71.20000000000005,-0.0004029999999999
71.39999999999998,0.000429
71.60000000000002,-0.0008639999999999
71.80000000000007,-0.0010079999999996
72.0,-0.0010789999999998
72.20000000000005,-0.0014639999999999
72.39999999999998,-0.0015799999999996
72.60000000000002,-0.0012819999999997
72.80000000000007,-0.0022469999999996
73.0,-0.0036059999999999
73.20000000000005,-0.0035279999999997
73.39999999999998,-0.0044349999999999
73.60000000000002,-0.0054409999999998
73.80000000000007,-0.0054129999999998
74.0,-0.005201
74.20000000000005,-0.0067659999999998
74.39999999999998,-0.0069219999999998
74.60000000000002,-0.0074209999999999
74.80000000000007,-0.0067569999999999
75.0,-0.0069999999999996
75.20000000000005,-0.0065199999999996
75.39999999999998,-0.005862
75.60000000000002,-0.0049379999999996
75.80000000000007,-0.0044409999999999
76.0,-0.0055839999999998
76.20000000000005,-0.0084509999999999
76.39999999999998,-0.0107209999999997
76.60000000000002,-0.0105899999999996
76.80000000000007,-0.0107899999999996
77.0,-0.0101439999999999
77.20000000000005,-0.0068939999999999
77.39999999999998,-0.003962
77.60000000000002,-0.0038939999999998
77.80000000000007,-0.0034799999999997
78.0,-0.0029709999999996
78.20000000000005,-0.0025849999999998
78.39999999999998,-0.003085
78.60000000000002,-0.0028669999999997
78.80000000000007,-0.0021759999999999
79.0,-0.0014059999999997
79.20000000000005,-0.0014829999999999
79.39999999999998,-0.0016399999999996
79.60000000000002,-0.0014279999999997
79.80000000000007,-0.0016069999999999
80.0,-0.0012749999999996
80.20000000000005,-0.0006189999999999
80.39999999999998,0.0006440000000003
80.60000000000002,0.001179
80.80000000000007,0.0015050000000003
81.0,0.0012610000000004
81.20000000000005,0.0003450000000002
81.39999999999998,-0.0023399999999997
81.60000000000002,-0.0040099999999996
81.80000000000007,-0.0058289999999998
82.0,-0.0057799999999996
82.20000000000005,-0.0061649999999997
82.39999999999998,-0.0057579999999997
82.60000000000002,-0.00712
82.80000000000007,-0.0076579999999997
83.0,-0.008159
83.20000000000005,-0.007873
83.39999999999998,-0.007406
83.60000000000002,-0.0069349999999999
83.80000000000007,-0.006167
84.0,-0.0066469999999996
84.20000000000005,-0.0066199999999998
84.39999999999998,-0.0064319999999997
84.60000000000002,-0.0047749999999999
84.80000000000007,-0.0040389999999996
85.0,-0.0037929999999999
85.20000000000005,-0.0032069999999997
85.39999999999998,-0.0026629999999996
85.60000000000002,-0.0025699999999999
85.80000000000007,-0.0030719999999999
86.0,-0.003533
86.20000000000005,-0.0046589999999997
86.39999999999998,-0.0059089999999999
86.60000000000002,-0.0044819999999998
86.80000000000007,-0.0025229999999996
87.0,-0.0021489999999997
87.20000000000005,-0.0032799999999997
87.39999999999998,-0.0045499999999996
87.60000000000002,-0.0066479999999997
87.80000000000007,-0.0082009999999996
88.0,-0.0074079999999998
88.20000000000005,-0.0063529999999998
88.39999999999998,-0.0048849999999998
88.60000000000002,-0.0066409999999996
88.80000000000007,-0.0070629999999995
89.0,-0.0072839999999998
89.20000000000005,-0.0054449999999999
89.39999999999998,-0.0049289999999997
89.60000000000002,-0.002491
89.80000000000007,-0.0025019999999997
90.0,-0.0021389999999996
90.20000000000005,-0.0026799999999997
90.39999999999998,-0.0020259999999998
90.60000000000002,-0.0023329999999996
90.80000000000008,-0.0014339999999997
91.0,-0.0017679999999997
91.20000000000005,-0.0038649999999997
91.39999999999998,-0.0071419999999999
91.60000000000002,-0.010526
91.80000000000008,-0.0139549999999997
92.0,-0.0139299999999997
92.20000000000005,-0.0123619999999999
92.39999999999998,-0.0089399999999999
92.60000000000002,-0.0080229999999996
92.80000000000008,-0.0069309999999997
93.0,-0.0073139999999995
93.20000000000005,-0.007298
93.39999999999998,-0.0086859999999999
93.60000000000002,-0.0083739999999998
93.80000000000008,-0.0081039999999998
94.0,-0.0084759999999999
94.20000000000005,-0.0074159999999996
94.39999999999998,-0.0048869999999996
94.60000000000002,-0.0030299999999998
94.80000000000008,-0.0018989999999998
95.0,-0.0020899999999999
95.20000000000005,-0.0035539999999998
95.39999999999998,-0.0060199999999999
95.60000000000002,-0.0077829999999998
95.80000000000008,-0.0075179999999996
96.0,-0.0074719999999999
96.20000000000005,-0.0081389999999998
96.39999999999998,-0.0099029999999999
96.60000000000002,-0.0096659999999997
96.80000000000008,-0.011247
97.0,-0.0094749999999996
97.20000000000005,-0.0081199999999999
97.39999999999998,-0.0065059999999999
97.60000000000002,-0.0055689999999999
97.80000000000008,-0.0042139999999997
98.0,-0.004896
98.20000000000005,-0.0051929999999997
98.39999999999998,-0.0039059999999997
98.60000000000002,-0.0034499999999999
98.80000000000008,-0.0046129999999999
99.0,-0.0073129999999999
99.20000000000005,-0.0075999999999996
99.39999999999998,-0.0083889999999997
99.60000000000002,-0.0088489999999996
99.80000000000008,-0.007908
100.0,-0.0055079999999998
100.20000000000005,-0.0061989999999996
100.39999999999998,-0.0064769999999998
100.60000000000002,-0.0053969999999998
100.80000000000008,-0.0039279999999997
101.0,-0.0034049999999998
101.20000000000005,-0.0013539999999996
101.39999999999998,-0.0004899999999996
101.60000000000002,-0.0007379999999996
101.80000000000008,-0.0009079999999999
102.0,-0.0005069999999998
102.20000000000005,-0.0016499999999997
102.39999999999998,-0.0036629999999999
102.60000000000002,-0.0052529999999997
102.80000000000008,-0.0057429999999998
103.0,-0.0067159999999999
103.20000000000005,-0.0085229999999998
103.39999999999998,-0.009055
103.60000000000002,-0.0103919999999999
103.80000000000008,-0.0119579999999999
104.0,-0.0131769999999997
104.20000000000005,-0.012143
104.39999999999998,-0.0107709999999996
104.60000000000002,-0.0086909999999997
104.80000000000008,-0.0088369999999997
105.0,-0.0092109999999996
105.20000000000005,-0.0092159999999998
105.39999999999998,-0.0090749999999997
105.60000000000002,-0.0097439999999999
105.80000000000008,-0.0103519999999996
106.0,-0.0098849999999997
106.20000000000005,-0.0104319999999997
106.39999999999998,-0.0101579999999996
106.60000000000002,-0.0082539999999999
106.80000000000008,-0.0056479999999998
107.0,-0.0046559999999997
107.20000000000005,-0.0027999999999996
107.39999999999998,-0.0015359999999997
107.60000000000002,-0.0015619999999998
107.80000000000008,-0.0008599999999998
108.0,-0.0002309999999998
108.20000000000005,-0.0007539999999996
108.39999999999998,-0.0017619999999998
108.60000000000002,-0.0024399999999999
108.80000000000008,-0.004105
109.0,-0.0057329999999997
109.20000000000005,-0.0077719999999996
109.39999999999998,-0.010097
109.60000000000002,-0.0121879999999996
109.80000000000008,-0.0118609999999996
110.0,-0.0104149999999996
110.20000000000005,-0.0076249999999999
110.39999999999998,-0.0045259999999998
110.60000000000002,-0.0008189999999999
110.80000000000008,-0.0012289999999999
111.0,-0.0014909999999996
111.20000000000005,-0.0026989999999997
111.39999999999998,-0.0037029999999997
111.60000000000002,-0.0064129999999997
111.80000000000008,-0.0073189999999998
112.0,-0.0072409999999996
112.20000000000005,-0.0083339999999996
112.39999999999998,-0.0093349999999996
112.60000000000002,-0.0096709999999999
112.80000000000008,-0.0082879999999998
113.0,-0.0072449999999997
113.20000000000005,-0.0043599999999996
113.39999999999998,-0.0017849999999999
113.60000000000002,-0.000626
113.80000000000008,-0.0016689999999996
114.0,-0.0040059999999999
114.20000000000005,-0.0059379999999999
114.39999999999998,-0.007301
114.60000000000002,-0.0064849999999996
114.80000000000008,-0.003927
115.0,-0.0012239999999996
115.20000000000005,0.0016890000000002
115.39999999999998,0.0039860000000002
115.60000000000002,0.0055080000000002
115.80000000000008,0.0045740000000003
116.0,0.0037130000000002
116.20000000000005,0.0027980000000003
116.39999999999998,0.0003920000000001
116.60000000000002,-0.0028959999999997
116.80000000000008,-0.0049999999999998
117.0,-0.0068729999999996
117.20000000000005,-0.0084019999999997
117.39999999999998,-0.0095619999999998
117.60000000000002,-0.0104609999999998
117.80000000000008,-0.0110039999999997
118.0,-0.0122769999999996
118.20000000000005,-0.012718
118.39999999999998,-0.0098259999999998
118.60000000000002,-0.0059469999999999
118.80000000000008,-0.0042629999999999
119.0,-0.0033919999999998
119.20000000000005,-0.0028319999999997
119.39999999999998,-0.0035799999999999
119.60000000000002,-0.0053939999999998
119.80000000000008,-0.006186
120.0,-0.0060759999999997
120.20000000000005,-0.005252
120.39999999999998,-0.0056769999999999
120.60000000000002,-0.0057989999999996
120.80000000000008,-0.0056079999999996
121.0,-0.0043189999999997
121.20000000000005,-0.0070269999999998
121.39999999999998,-0.0090899999999995
121.60000000000002,-0.0093779999999998
121.80000000000008,-0.0090849999999997
122.0,-0.0101519999999997
122.20000000000005,-0.0103919999999999
122.39999999999998,-0.0098339999999996
122.60000000000002,-0.0113759999999998
122.80000000000008,-0.0115939999999996
123.0,-0.011943
123.20000000000005,-0.0115229999999999
123.39999999999998,-0.0116289999999996
123.60000000000002,-0.0108799999999997
123.80000000000008,-0.0109319999999999
124.0,-0.0092649999999996
124.20000000000005,-0.0065529999999998
124.39999999999998,-0.0052649999999996
124.60000000000002,-0.0047069999999997
124.80000000000008,-0.0047189999999996
125.0,-0.0054639999999999
125.20000000000005,-0.0069539999999999
125.39999999999998,-0.0084549999999996
125.60000000000002,-0.0086829999999999
125.80000000000008,-0.0077779999999996
126.0,-0.007355
126.20000000000005,-0.0072499999999999
126.39999999999998,-0.0061639999999996
126.60000000000002,-0.0057139999999997
126.80000000000008,-0.007568
127.0,-0.0085789999999996
127.20000000000005,-0.0094799999999999
127.39999999999998,-0.0095729999999996
127.60000000000002,-0.0100529999999996
127.80000000000008,-0.0070809999999998
128.0,-0.004572
128.20000000000005,-0.000553
128.39999999999998,0.00076
128.60000000000002,0.001754
128.80000000000007,-0.0011619999999998
129.0,-0.0048779999999997
129.20000000000005,-0.0077179999999996
129.39999999999998,-0.0078299999999997
129.60000000000002,-0.0086919999999999
129.80000000000007,-0.0073609999999999
130.0,-0.0047789999999996
130.20000000000005,-0.0032329999999998
130.39999999999998,-0.0027969999999997
130.60000000000002,-0.0026039999999998
130.80000000000007,-0.0031259999999999
131.0,-0.0041409999999997
131.20000000000005,-0.0060119999999996
131.39999999999998,-0.0071769999999999
131.60000000000002,-0.0058749999999996
131.80000000000007,-0.0045289999999997
132.0,-0.0041089999999996
132.20000000000005,-0.0041369999999996
132.39999999999998,-0.0049809999999999
132.60000000000002,-0.0078099999999996
132.80000000000007,-0.0087029999999996
133.0,-0.0079369999999996
133.20000000000005,-0.0063729999999999
133.39999999999998,-0.0053369999999999
133.60000000000002,-0.0029629999999998
133.80000000000007,-0.0039639999999998
134.0,-0.0062999999999999
134.20000000000005,-0.0085839999999999
134.39999999999998,-0.0100829999999998
134.60000000000002,-0.0125409999999996
134.80000000000007,-0.0127099999999997
135.0,-0.0127109999999999
135.20000000000005,-0.0118869999999997
135.39999999999998,-0.0116049999999998
135.60000000000002,-0.0102199999999998
135.80000000000007,-0.0104879999999996
136.0,-0.0109479999999999
136.20000000000005,-0.0122209999999998
136.39999999999998,-0.0114619999999998
136.60000000000002,-0.011139
136.80000000000007,-0.0096149999999997
137.0,-0.0077979999999997
137.20000000000005,-0.0062089999999996
137.39999999999998,-0.0062919999999997
137.60000000000002,-0.0064729999999997
137.80000000000007,-0.007498
138.0,-0.0083649999999999
138.20000000000005,-0.010186
138.39999999999998,-0.0122019999999998
138.60000000000002,-0.0157539999999998
138.80000000000007,-0.0173879999999999
139.0,-0.0190339999999999
139.20000000000005,-0.0189859999999999
139.39999999999998,-0.0194469999999999
139.60000000000002,-0.0181739999999996
139.80000000000007,-0.0167939999999999
140.0,-0.0140089999999997
140.20000000000005,-0.0109429999999997
140.39999999999998,-0.0079379999999997
140.60000000000002,-0.0050119999999997
140.80000000000007,-0.0039929999999999
141.0,-0.0046019999999997
141.20000000000005,-0.0066399999999999
141.39999999999998,-0.0068039999999998
141.60000000000002,-0.0067989999999999
141.80000000000007,-0.0068999999999999
142.0,-0.0072479999999996
142.20000000000005,-0.0068389999999998
142.39999999999998,-0.0067969999999997
142.60000000000002,-0.0066829999999997
142.80000000000007,-0.006583
143.0,-0.0061359999999996
143.20000000000005,-0.0053769999999997
143.39999999999998,-0.005325
143.60000000000002,-0.0069729999999998
143.80000000000007,-0.0077169999999999
144.0,-0.0081979999999997
144.20000000000005,-0.008807
144.39999999999998,-0.0101269999999997
144.60000000000002,-0.0087929999999998
144.80000000000007,-0.0078259999999996
145.0,-0.0066759999999996
145.20000000000005,-0.006027
145.39999999999998,-0.0063189999999999
145.60000000000002,-0.0072199999999997
145.80000000000007,-0.0081329999999999
146.0,-0.0072529999999999
146.20000000000005,-0.0071909999999997
146.39999999999998,-0.0056039999999999
146.60000000000002,-0.0033479999999999
146.80000000000007,-0.0025079999999997
147.0,-0.0034619999999998
147.20000000000005,-0.0047469999999996
147.39999999999998,-0.0052219999999998
147.60000000000002,-0.0065459999999997
147.80000000000007,-0.0063929999999996
148.0,-0.0057069999999996
148.20000000000005,-0.0041929999999998
148.39999999999998,-0.0047739999999998
148.60000000000002,-0.005614
148.80000000000007,-0.0070509999999996
149.0,-0.0093579999999997
149.20000000000005,-0.0122279999999999
149.39999999999998,-0.0128219999999998
149.60000000000002,-0.0130349999999999
149.80000000000007,-0.0125899999999998
150.0,-0.0124939999999997
150.20000000000005,-0.0098949999999997
150.39999999999998,-0.0077689999999996
150.60000000000002,-0.0058609999999998
150.80000000000007,-0.0062969999999999
151.0,-0.0066649999999999
151.20000000000005,-0.0101299999999997
151.39999999999998,-0.0132779999999996
151.60000000000002,-0.0152239999999999
151.80000000000007,-0.0141079999999997
152.0,-0.0123979999999996
152.20000000000005,-0.0100839999999999
152.39999999999998,-0.0066459999999999
152.60000000000002,-0.0035129999999998
152.80000000000007,-0.0023699999999999
153.0,-0.0025999999999997
153.20000000000005,-0.0026519999999998
153.39999999999998,-0.0031909999999997
153.60000000000002,-0.0058869999999999
153.80000000000007,-0.0081549999999999
154.0,-0.0091319999999996
154.20000000000005,-0.0100309999999996
154.39999999999998,-0.0127189999999997
154.60000000000002,-0.0128629999999998
154.80000000000007,-0.0116109999999998
155.0,-0.0108889999999997
155.20000000000005,-0.0088679999999996
155.39999999999998,-0.0050869999999996
155.60000000000002,-0.0026989999999997
155.80000000000007,-0.0013159999999996
156.0,-0.0001159999999997
156.20000000000005,-0.0004719999999998
156.39999999999998,-0.003031
156.60000000000002,-0.0060389999999999
156.80000000000007,-0.0078459999999997
157.0,-0.0088549999999996
157.20000000000005,-0.0093299999999998
157.39999999999998,-0.0093429999999998
157.60000000000002,-0.0080069999999996
157.80000000000007,-0.0074349999999996
158.0,-0.0072679999999998
158.20000000000005,-0.008661
158.39999999999998,-0.0095929999999997
158.60000000000002,-0.0103599999999999
158.80000000000007,-0.011638
159.0,-0.0137439999999999
159.20000000000005,-0.013147
159.39999999999998,-0.0108419999999997
159.60000000000002,-0.0090919999999998
159.80000000000007,-0.0082239999999997
160.0,-0.0052839999999996
160.20000000000005,-0.0049139999999998
160.39999999999998,-0.0051329999999998
160.60000000000002,-0.0079149999999996
160.80000000000007,-0.0079489999999999
161.0,-0.0092699999999998
161.20000000000005,-0.0092269999999996
161.39999999999998,-0.0100189999999997
161.60000000000002,-0.0110379999999996
161.80000000000007,-0.0134119999999997
162.0,-0.0147459999999997
162.20000000000005,-0.0159599999999997
162.39999999999998,-0.0181059999999999
162.60000000000002,-0.0176579999999999
162.80000000000007,-0.0166329999999996
163.0,-0.014993
163.20000000000005,-0.0118039999999997
163.39999999999998,-0.0090649999999996
163.60000000000002,-0.0065689999999998
163.80000000000007,-0.0068449999999997
164.0,-0.0073489999999996
164.20000000000005,-0.0099219999999999
164.39999999999998,-0.0105629999999998
164.60000000000002,-0.0124759999999999
164.80000000000007,-0.0125049999999999
165.0,-0.0133689999999999
165.20000000000005,-0.0138869999999999
165.39999999999998,-0.0148579999999998
165.60000000000002,-0.0147019999999997
165.80000000000007,-0.013109
166.0,-0.0111109999999996
166.20000000000005,-0.0092439999999998
166.39999999999998,-0.008178
166.60000000000002,-0.0078929999999997
166.80000000000007,-0.0094899999999999
167.0,-0.0116199999999997
167.20000000000005,-0.0132409999999998
167.39999999999998,-0.0146189999999997
167.60000000000002,-0.0147159999999999
167.80000000000007,-0.0142799999999998
168.0,-0.0147149999999998
168.20000000000005,-0.0160509999999995
168.39999999999998,-0.0174299999999996
168.60000000000002,-0.0189099999999999
168.80000000000007,-0.0192849999999999
169.0,-0.0174189999999998
169.20000000000005,-0.01532
169.39999999999998,-0.0118579999999997
169.60000000000002,-0.0084459999999997
169.80000000000007,-0.0071759999999998
170.0,-0.0094199999999999
170.20000000000005,-0.0122969999999997
170.39999999999998,-0.015803
170.60000000000002,-0.0173839999999998
170.80000000000007,-0.0177809999999998
171.0,-0.0145399999999997
171.20000000000005,-0.0107569999999999
171.39999999999998,-0.0069669999999999
171.60000000000002,-0.0066869999999998
171.80000000000007,-0.0075699999999998
172.0,-0.0111939999999997
172.20000000000005,-0.0141929999999996
172.39999999999998,-0.0156189999999996
172.60000000000002,-0.0160479999999996
172.80000000000007,-0.0154329999999998
173.0,-0.012575
173.20000000000005,-0.0102409999999997
173.39999999999998,-0.0109889999999999
173.60000000000002,-0.0121559999999996
173.80000000000007,-0.0131879999999999
174.0,-0.0148679999999998
174.20000000000005,-0.0156929999999997
174.39999999999998,-0.0149109999999996
174.60000000000002,-0.0130109999999996
174.80000000000007,-0.010742
175.0,-0.0100119999999996
175.20000000000005,-0.0090189999999998
175.39999999999998,-0.008607
175.60000000000002,-0.0092789999999998
175.80000000000007,-0.009846
176.0,-0.0086699999999999
176.20000000000005,-0.0082529999999998
176.39999999999998,-0.0090369999999997
176.60000000000002,-0.010151
176.80000000000007,-0.0114619999999998
177.0,-0.013093
177.20000000000005,-0.0150419999999997
177.39999999999998,-0.0159479999999998
177.60000000000002,-0.0166619999999997
177.80000000000007,-0.0166619999999997
178.0,-0.0158809999999998
178.20000000000005,-0.0158179999999998
178.39999999999998,-0.0163929999999998
178.60000000000002,-0.0156339999999999
178.80000000000007,-0.0156919999999995
179.0,-0.0160229999999996
179.20000000000005,-0.015155
179.39999999999998,-0.0133869999999998
179.60000000000002,-0.013128
179.80000000000007,-0.0135769999999997
180.0,-0.015425
180.20000000000005,-0.0175029999999996
180.4,-0.0189709999999996
180.6,-0.0175259999999997
180.80000000000007,-0.0148309999999995
181.0,-0.011317
181.20000000000005,-0.0089189999999996
181.4,-0.0073099999999999
181.6,-0.0077229999999999
181.80000000000007,-0.0088379999999999
182.0,-0.0106149999999995
182.20000000000005,-0.0121959999999998
182.4,-0.0133889999999996
182.6,-0.0138469999999997
182.80000000000007,-0.0136499999999997
183.0,-0.0143249999999999
183.20000000000005,-0.014186
183.4,-0.0149059999999998
183.6,-0.0149339999999997
183.80000000000007,-0.0159969999999995
184.0,-0.0139949999999999
184.20000000000005,-0.012251
184.4,-0.0116489999999997
184.6,-0.0122949999999999
184.80000000000007,-0.0116129999999996
185.0,-0.0119359999999999
185.20000000000005,-0.0130489999999996
185.4,-0.0127599999999996
185.6,-0.0117069999999999
185.80000000000007,-0.0111169999999996
186.0,-0.0110099999999997
186.20000000000005,-0.0092019999999997
186.4,-0.0055519999999997
186.6,-0.0032519999999998
186.80000000000007,-0.0033279999999997
187.0,-0.0054419999999999
187.20000000000005,-0.0073109999999996
187.4,-0.0087209999999999
187.6,-0.0105369999999997
187.80000000000007,-0.0110179999999999
188.0,-0.010421
188.20000000000005,-0.0094029999999998
188.4,-0.0119529999999996
188.6,-0.0131139999999998
188.80000000000007,-0.0145019999999997
189.0,-0.0153379999999998
189.20000000000005,-0.0174109999999996
189.4,-0.0168619999999997
189.6,-0.0166549999999996
189.80000000000007,-0.0144239999999999
190.0,-0.0117729999999998
190.20000000000005,-0.0085569999999997
190.4,-0.0062659999999996
190.6,-0.0038059999999999
190.80000000000007,-0.0030979999999996
191.0,-0.0018219999999997
191.20000000000005,6.000000000039307e-05
191.4,0.001087
191.6,0.000159
191.80000000000007,-0.001865
192.0,-0.0052139999999996
192.20000000000005,-0.0074909999999999
192.4,-0.0088459999999996
192.6,-0.0091639999999997
192.80000000000007,-0.0092669999999999
193.0,-0.0094229999999999
193.20000000000005,-0.0094789999999997
193.4,-0.009595
193.6,-0.0092519999999995
193.80000000000007,-0.0101579999999996
194.0,-0.0103189999999999
194.20000000000005,-0.0130179999999997
194.4,-0.013989
194.6,-0.0160549999999997
194.80000000000007,-0.0160129999999996
195.0,-0.014764
195.20000000000005,-0.0118409999999999
195.4,-0.0103149999999998
195.6,-0.0095909999999999
195.80000000000007,-0.0086059999999998
196.0,-0.0095429999999998
196.20000000000005,-0.0122059999999999
196.4,-0.0141339999999998
196.6,-0.0134339999999997
196.80000000000007,-0.0126619999999997
197.0,-0.0125119999999996
197.20000000000005,-0.0114339999999999
197.4,-0.0129239999999999
197.6,-0.0133809999999998
197.80000000000007,-0.0130129999999999
198.0,-0.0110609999999997
198.20000000000005,-0.0108269999999999
198.4,-0.0092969999999996
198.6,-0.0087139999999998
198.80000000000007,-0.0090869999999996
199.0,-0.0101289999999996
199.20000000000005,-0.0106389999999998
199.4,-0.0101929999999996
199.6,-0.0107899999999996
199.80000000000007,-0.011676
200.0,-0.0121909999999996
200.20000000000005,-0.0117959999999999
200.4,-0.0124319999999999
200.6,-0.0122249999999999
200.80000000000007,-0.0120969999999998
201.0,-0.0125389999999998
201.20000000000005,-0.0120979999999999
201.4,-0.0090749999999997
201.6,-0.0075049999999996
201.80000000000007,-0.007784
202.0,-0.0068559999999999
202.20000000000005,-0.0071409999999998
202.4,-0.0123929999999998
202.6,-0.0152619999999998
202.80000000000007,-0.0153429999999996
203.0,-0.0177259999999996
203.20000000000005,-0.0205589999999999
203.4,-0.019695
203.6,-0.0191299999999996
203.80000000000007,-0.0185589999999997
204.0,-0.0164309999999998
204.20000000000005,-0.0130689999999997
204.4,-0.0102639999999998
204.6,-0.0109889999999999
204.80000000000007,-0.0108019999999999
205.0,-0.0108779999999999
205.20000000000005,-0.0106799999999998
205.4,-0.0112479999999997
205.6,-0.0093649999999998
205.80000000000007,-0.009506
206.0,-0.010046
206.20000000000005,-0.0131559999999999
206.4,-0.0149589999999997
206.6,-0.0165989999999998
206.80000000000007,-0.0152239999999999
207.0,-0.013325
207.20000000000005,-0.0106119999999996
207.4,-0.0103779999999997
207.6,-0.0104819999999996
207.80000000000007,-0.0117319999999998
208.0,-0.0127369999999999
208.20000000000005,-0.0141929999999996
208.4,-0.0141189999999999
208.6,-0.0141779999999998
208.80000000000007,-0.0152399999999999
209.0,-0.0167089999999996
209.20000000000005,-0.0176789999999997
209.4,-0.0174319999999998
209.6,-0.0183089999999999
209.80000000000007,-0.0174599999999998
210.0,-0.0149759999999998
210.20000000000005,-0.0120669999999996
210.4,-0.0115879999999997
210.6,-0.010205
210.80000000000007,-0.0120129999999996
211.0,-0.0138399999999996
211.20000000000005,-0.0156959999999997
211.4,-0.0150749999999999
211.6,-0.0146609999999998
211.80000000000007,-0.0126309999999998
212.0,-0.012054
212.20000000000005,-0.0102479999999998
212.4,-0.0093119999999999
212.6,-0.0095669999999996
212.80000000000007,-0.0117579999999999
213.0,-0.0142019999999996
213.20000000000005,-0.014259
213.4,-0.0154049999999998
213.6,-0.014078
213.80000000000007,-0.0125589999999999
214.0,-0.0102059999999997
214.20000000000005,-0.0110109999999998
214.4,-0.0126129999999999
214.6,-0.0135139999999998
214.80000000000007,-0.0136849999999997
215.0,-0.0141249999999999
215.20000000000005,-0.016286
215.4,-0.0156539999999996
215.6,-0.0166739999999996
215.80000000000007,-0.0158039999999997
216.0,-0.0149309999999998
216.20000000000005,-0.0122219999999999
216.4,-0.0121219999999997
216.6,-0.0110129999999997
216.80000000000007,-0.0108719999999999
217.0,-0.0110269999999998
217.20000000000005,-0.0125429999999999
217.4,-0.0138429999999996
217.6,-0.014958
217.80000000000007,-0.0157529999999996
218.0,-0.0175909999999999
218.20000000000005,-0.0185539999999999
218.4,-0.0179789999999999
218.6,-0.0182059999999997
218.80000000000007,-0.0177839999999998
219.0,-0.0151149999999997
219.20000000000005,-0.0122799999999996
219.4,-0.0104589999999999
219.6,-0.0092379999999998
219.80000000000007,-0.0103119999999998
220.0,-0.0139329999999997
220.20000000000005,-0.0170439999999998
220.4,-0.0179599999999999
220.6,-0.0179359999999997
220.80000000000007,-0.0180669999999998
221.0,-0.017347
221.20000000000005,-0.0153469999999997
221.4,-0.0151439999999998
221.6,-0.016483
221.80000000000007,-0.0177579999999997
222.0,-0.0190969999999999
222.20000000000005,-0.0203949999999997
222.4,-0.0214859999999998
222.6,-0.0212079999999996
222.80000000000007,-0.0191159999999999
223.0,-0.0168569999999999
223.20000000000005,-0.0166339999999998
223.4,-0.01654
223.6,-0.0160639999999996
223.80000000000007,-0.0170189999999998
224.0,-0.0176619999999996
224.20000000000005,-0.0183709999999996
224.4,-0.019247
224.6,-0.0197939999999996
224.80000000000007,-0.0193059999999998
225.0,-0.0178259999999998
225.20000000000005,-0.0170099999999999
225.4,-0.0151689999999997
225.6,-0.0136159999999998
225.80000000000007,-0.0131199999999997
226.0,-0.0152749999999999
226.20000000000005,-0.0161749999999996
226.4,-0.0157549999999999
226.6,-0.0150709999999998
226.80000000000007,-0.0135629999999999
227.0,-0.0123909999999995
227.20000000000005,-0.0125609999999998
227.4,-0.0125679999999999
227.6,-0.0117749999999996
227.80000000000007,-0.0105059999999999
228.0,-0.0088019999999997
228.20000000000005,-0.0067889999999999
228.4,-0.0082109999999997
228.6,-0.0103429999999997
228.80000000000007,-0.0124249999999999
229.0,-0.0131719999999999
229.20000000000005,-0.0135279999999999
229.4,-0.013722
229.6,-0.0145789999999998
229.80000000000007,-0.0154359999999997
230.0,-0.0161259999999998
230.20000000000005,-0.016556
230.4,-0.0157789999999997
230.6,-0.0161069999999998
230.80000000000007,-0.0167489999999999
231.0,-0.0169269999999999
231.20000000000005,-0.0162019999999998
231.4,-0.0164649999999997
231.6,-0.0151569999999998
231.80000000000007,-0.0137739999999997
232.0,-0.0125269999999999
232.20000000000005,-0.0139369999999998
232.4,-0.0146269999999999
232.6,-0.014421
232.80000000000007,-0.0137649999999998
233.0,-0.0138569999999997
233.20000000000005,-0.0136919999999998
233.4,-0.0132799999999999
233.6,-0.0135669999999996
233.80000000000007,-0.0137399999999998
234.0,-0.0146049999999999
234.20000000000005,-0.0134229999999999
234.4,-0.0125489999999999
234.6,-0.0135459999999998
234.80000000000007,-0.0148939999999999
235.0,-0.0164259999999996
235.20000000000005,-0.0192929999999997
235.4,-0.0215329999999998
235.6,-0.0222869999999999
235.80000000000007,-0.021633
236.0,-0.0197539999999998
236.20000000000005,-0.0172769999999999
236.4,-0.0156689999999999
236.6,-0.0144359999999998
236.80000000000007,-0.0165109999999999
237.0,-0.0184459999999999
237.20000000000005,-0.0192229999999997
237.4,-0.0187219999999999
237.6,-0.0178239999999996
237.80000000000007,-0.0161659999999996
238.0,-0.0145179999999998
238.20000000000005,-0.0146079999999999
238.4,-0.0159959999999999
238.6,-0.0166999999999997
238.80000000000007,-0.01539
239.0,-0.01356
239.20000000000005,-0.011854
239.4,-0.0098569999999997
239.6,-0.0096099999999998
239.80000000000007,-0.0122849999999998
240.0,-0.014761
240.20000000000005,-0.0162689999999998
240.4,-0.0159859999999998
240.6,-0.015641
240.80000000000007,-0.0134789999999997
241.0,-0.0136789999999997
241.20000000000005,-0.0130269999999996
241.4,-0.0130029999999998
241.6,-0.0128199999999996
241.80000000000007,-0.0142669999999998
242.0,-0.0157919999999998
242.20000000000005,-0.0180149999999996
242.4,-0.0197249999999997
242.6,-0.0199039999999999
242.80000000000007,-0.017185
243.0,-0.0137359999999997
243.20000000000005,-0.0116109999999998
243.4,-0.0125419999999998
243.6,-0.0143219999999999
243.80000000000007,-0.0174799999999999
244.0,-0.0192499999999999
244.20000000000005,-0.0201829999999998
244.4,-0.018599
244.6,-0.0184699999999997
244.80000000000007,-0.0163859999999997
245.0,-0.0154769999999997
245.20000000000005,-0.014637
245.4,-0.0157699999999998
245.6,-0.014043
245.80000000000007,-0.0153869999999995
246.0,-0.0146999999999999
246.20000000000005,-0.0145039999999996
246.4,-0.0120989999999996
246.6,-0.0120739999999996
246.80000000000007,-0.0103639999999995
247.0,-0.0099979999999999
247.20000000000005,-0.0106329999999998
247.4,-0.0128929999999996
247.6,-0.0136119999999997
247.80000000000007,-0.0128199999999996
248.0,-0.0138869999999999
248.20000000000005,-0.0124809999999997
248.4,-0.0096499999999997
248.6,-0.0080279999999999
248.80000000000007,-0.0094909999999996
249.0,-0.0105759999999999
249.20000000000005,-0.0122009999999996
249.4,-0.0158459999999998
249.6,-0.0194959999999997
249.80000000000007,-0.022961
250.0,-0.0241109999999999
250.20000000000005,-0.0234299999999998
250.4,-0.0207739999999998
250.6,-0.0192899999999998
250.80000000000007,-0.0179119999999999
251.0,-0.0158339999999999
251.20000000000005,-0.0152709999999998
251.4,-0.0158059999999999
251.6,-0.0149719999999997
251.80000000000007,-0.0138149999999996
252.0,-0.0144479999999997
252.20000000000005,-0.0164679999999997
252.4,-0.0168849999999998
252.6,-0.0186779999999999
252.80000000000007,-0.0199589999999996
253.0,-0.0210269999999996
253.20000000000005,-0.0192259999999997
253.4,-0.0184039999999998
253.6,-0.0170269999999996
253.80000000000007,-0.0169909999999999
254.0,-0.0165709999999998
254.20000000000005,-0.0175139999999998
254.4,-0.0188189999999996
254.6,-0.0189919999999998
254.80000000000007,-0.0175319999999996
255.0,-0.0175729999999996
255.20000000000005,-0.0188049999999999
255.4,-0.0198209999999998
255.6,-0.0205309999999996
255.80000000000007,-0.0194969999999998
256.0,-0.0183959999999996
256.20000000000005,-0.0172689999999997
256.4,-0.0163829999999998
256.6,-0.0146689999999995
256.80000000000007,-0.0171229999999997
257.0,-0.0183549999999996
257.20000000000005,-0.0184409999999997
257.4,-0.0187219999999999
257.6,-0.0193229999999999
257.80000000000007,-0.0168319999999999
258.0,-0.0146759999999996
258.20000000000005,-0.0128379999999999
258.4,-0.0125409999999996
258.6,-0.0141789999999999
258.80000000000007,-0.0163189999999997
259.0,-0.0184729999999997
259.20000000000005,-0.0192649999999998
259.4,-0.0179019999999998
259.6,-0.0166219999999999
259.80000000000007,-0.0148569999999996
260.0,-0.0144969999999999
260.20000000000005,-0.0162089999999999
260.4,-0.0193509999999998
260.6,-0.0206939999999997
260.80000000000007,-0.0211459999999998
261.0,-0.0205129999999997
261.20000000000005,-0.0206699999999999
261.4,-0.0190279999999996
261.6,-0.0156829999999996
261.80000000000007,-0.0152459999999998
262.0,-0.0147159999999999
262.20000000000005,-0.013398
262.4,-0.0126359999999996
262.6,-0.0141619999999997
262.80000000000007,-0.0129809999999999
263.0,-0.0110539999999996
263.20000000000005,-0.0090729999999998
263.4,-0.0104329999999999
263.6,-0.0110389999999997
263.80000000000007,-0.0129409999999996
264.0,-0.0145089999999998
264.20000000000005,-0.0158489999999997
264.4,-0.0144719999999995
264.6,-0.0153819999999997
264.80000000000007,-0.0149429999999997
265.0,-0.0160919999999999
265.20000000000005,-0.0175259999999997
265.4,-0.0178479999999998
265.6,-0.0162539999999999
265.80000000000007,-0.0161479999999998
266.0,-0.0165859999999997
266.20000000000005,-0.0149869999999996
266.4,-0.0140309999999996
266.6,-0.0146319999999997
266.80000000000007,-0.0160919999999999
267.0,-0.0154879999999999
267.20000000000005,-0.0161389999999999
267.4,-0.0165869999999999
267.6,-0.0148199999999998
267.80000000000007,-0.0126429999999997
268.0,-0.0113219999999998
268.20000000000005,-0.0110209999999999
268.4,-0.0115009999999999
268.6,-0.0132989999999999
268.80000000000007,-0.015104
269.0,-0.0169519999999998
269.20000000000005,-0.0174939999999996
269.4,-0.0165499999999996
269.6,-0.0140859999999998
269.80000000000007,-0.0112389999999997
270.0,-0.0095919999999996
270.20000000000005,-0.0087299999999999
270.4,-0.0094089999999997
270.6,-0.0113829999999999
270.80000000000007,-0.0148209999999999
271.0,-0.016143
271.20000000000005,-0.0171459999999998
271.4,-0.0167569999999996
271.6,-0.0165419999999998
271.80000000000007,-0.0161759999999997
272.0,-0.0160029999999999
272.20000000000005,-0.0173589999999999
272.4,-0.0174509999999998
272.6,-0.0158
272.80000000000007,-0.0135229999999997
273.0,-0.0117169999999999
273.20000000000005,-0.0089369999999999
273.4,-0.0096559999999996
273.6,-0.0127999999999999
273.80000000000007,-0.0140889999999997
274.0,-0.0144579999999998
274.20000000000005,-0.0150109999999998
274.4,-0.0151509999999999
274.6,-0.0156049999999998
274.80000000000007,-0.0181869999999997
275.0,-0.0216559999999996
275.20000000000005,-0.0245479999999997
275.4,-0.0259769999999996
275.6,-0.0252119999999997
275.80000000000007,-0.023641
276.0,-0.0205269999999999
276.20000000000005,-0.0181629999999999
276.4,-0.0173679999999998
276.6,-0.0194189999999996
276.80000000000007,-0.0201259999999998
277.0,-0.0221859999999995
277.20000000000005,-0.022904
277.4,-0.0223229999999996
277.6,-0.018011
277.80000000000007,-0.0160659999999999
278.0,-0.0152779999999999
278.20000000000005,-0.0164499999999998
278.4,-0.0171269999999998
278.6,-0.0196229999999997
278.80000000000007,-0.0209719999999999
279.0,-0.02115
279.20000000000005,-0.0184319999999997
279.4,-0.0182609999999998
279.6,-0.0191599999999998
279.80000000000007,-0.0196349999999996
280.0,-0.0188539999999997
280.20000000000005,-0.0200819999999999
280.4,-0.0192919999999996
280.6,-0.0169979999999996
280.80000000000007,-0.0152999999999998
281.0,-0.0153269999999996
281.20000000000005,-0.0146839999999999
281.4,-0.0156929999999997
281.6,-0.0173299999999998
281.80000000000007,-0.0170029999999998
282.0,-0.0173909999999999
282.20000000000005,-0.0201139999999999
282.4,-0.0204369999999998
282.6,-0.0190799999999997
282.80000000000007,-0.0193289999999999
283.0,-0.0193289999999999
283.20000000000005,-0.0170939999999997
283.4,-0.0154379999999996
283.6,-0.0160919999999999
283.80000000000007,-0.0196729999999996
284.0,-0.0207519999999998
284.20000000000005,-0.0215209999999999
284.4,-0.0227139999999996
284.6,-0.0241689999999996
284.80000000000007,-0.0211549999999998
285.0,-0.0187169999999996
285.20000000000005,-0.0178609999999999
285.4,-0.0173489999999998
285.6,-0.0169459999999999
285.80000000000007,-0.0189499999999998
286.0,-0.0224729999999997
286.20000000000005,-0.0230479999999997
286.4,-0.0230509999999997
286.6,-0.0206139999999996
286.80000000000007,-0.0180389999999999
287.0,-0.0156339999999999
287.20000000000005,-0.0166169999999996
287.4,-0.016896
287.6,-0.0185759999999999
287.80000000000007,-0.0188369999999999
288.0,-0.0175609999999997
288.20000000000005,-0.0147759999999999
288.4,-0.0151679999999996
288.6,-0.0151349999999998
288.80000000000007,-0.0170219999999998
289.0,-0.0193039999999999
289.20000000000005,-0.0212379999999998
289.4,-0.0207059999999996
289.6,-0.0187489999999996
289.80000000000007,-0.0178279999999997
290.0,-0.0167169999999998
290.20000000000005,-0.0164719999999998
290.4,-0.0152839999999998
290.6,-0.0169389999999998
290.80000000000007,-0.0157059999999997
291.0,-0.0154869999999998
291.20000000000005,-0.0138519999999999
291.4,-0.0160139999999997
291.6,-0.0160419999999996
291.80000000000007,-0.0172289999999999
292.0,-0.0183739999999996
292.20000000000005,-0.0198009999999997
292.4,-0.0177619999999998
292.6,-0.0167209999999999
292.80000000000007,-0.0159549999999999
293.0,-0.0163859999999997
293.20000000000005,-0.0176269999999996
293.4,-0.0185819999999998
293.6,-0.0197809999999996
293.80000000000007,-0.0207689999999995
294.0,-0.0219279999999999
294.20000000000005,-0.0225729999999999
294.4,-0.0249259999999997
294.6,-0.0255339999999999
294.80000000000007,-0.0249829999999997
295.0,-0.0223959999999996
295.20000000000005,-0.0199009999999999
295.4,-0.0162919999999999
295.6,-0.0169390000000002
295.79999999999995,-0.0146380000000001
296.0,-0.010205
296.19999999999993,-0.006787
296.4,-0.0054510000000003
296.6,-0.0054020000000001
296.79999999999995,-0.0060800000000003
297.0,-0.0078080000000002
297.19999999999993,-0.009579
297.4,-0.0102109999999999
297.6,-0.0106600000000001
297.79999999999995,-0.0111460000000001
298.0,-0.0116270000000002
298.19999999999993,-0.0094440000000002
298.4,-0.0067680000000001
298.6,-0.0054720000000001
298.79999999999995,-0.0049080000000003
299.0,-0.0058920000000002
299.19999999999993,-0.0101470000000003
299.4,-0.0137800000000001
299.6,-0.0156520000000002
299.79999999999995,-0.0174130000000003
300.0,-0.0177100000000001
300.19999999999993,-0.0145360000000001
300.4,-0.0117060000000002
300.6,-0.0085870000000003
300.79999999999995,-0.0071259999999999
301.0,-0.0072100000000001
301.19999999999993,-0.0088210000000001
301.4,-0.0091499999999999
301.6,-0.0113150000000001
301.79999999999995,-0.0125950000000001
302.0,-0.0130760000000003
302.19999999999993,-0.0134850000000001
302.4,-0.0132769999999999
302.6,-0.0114330000000002
302.79999999999995,-0.009948
303.0,-0.0081730000000002
303.19999999999993,-0.0069250000000002
303.4,-0.0078680000000002
303.6,-0.0094720000000001
303.79999999999995,-0.0101409999999999
304.0,-0.0090880000000002
304.19999999999993,-0.008226
304.4,-0.007101
304.6,-0.0063370000000002
304.79999999999995,-0.0075579999999999
305.0,-0.010793
305.19999999999993,-0.0133240000000003
305.4,-0.016067
305.6,-0.0174000000000003
305.79999999999995,-0.017875
306.0,-0.018186
306.19999999999993,-0.0167429999999999
306.4,-0.015565
306.6,-0.015927
306.79999999999995,-0.0157220000000002
307.0,-0.0155899999999999
307.19999999999993,-0.0181660000000003
307.4,-0.0198430000000002
307.6,-0.0193980000000002
307.79999999999995,-0.0188890000000001
308.0,-0.0191090000000002
308.19999999999993,-0.019136
308.4,-0.0196670000000001
308.6,-0.019266
308.79999999999995,-0.0180260000000003
309.0,-0.0151340000000002
309.19999999999993,-0.0128539999999999
309.4,-0.0107790000000003
309.6,-0.0107460000000001
309.79999999999995,-0.012016
310.0,-0.014132
310.19999999999993,-0.0143120000000003
310.4,-0.0161830000000002
310.6,-0.0179780000000002
310.79999999999995,-0.0198900000000001
311.0,-0.0219240000000002
311.19999999999993,-0.0231050000000001
311.4,-0.0204949999999999
311.6,-0.0204300000000001
311.79999999999995,-0.019031
312.0,-0.0163100000000002
312.19999999999993,-0.0153690000000001
312.4,-0.016394
312.6,-0.0154400000000003
312.79999999999995,-0.014558
313.0,-0.0159329999999999
313.19999999999993,-0.0176120000000001
313.4,-0.0198450000000001
313.6,-0.022707
313.79999999999995,-0.0251749999999999
314.0,-0.0251900000000002
314.19999999999993,-0.0245760000000001
314.4,-0.0239980000000001
314.6,-0.0209760000000001
314.79999999999995,-0.0196710000000002
315.0,-0.0197060000000002
315.19999999999993,-0.0208940000000001
315.4,-0.0228360000000003
315.6,-0.0251920000000001
315.79999999999995,-0.026164
316.0,-0.0264079999999999
316.19999999999993,-0.0259010000000001
316.4,-0.0236210000000003
316.6,-0.0235929999999999
316.79999999999995,-0.0250289999999999
317.0,-0.024801
317.19999999999993,-0.0253420000000001
317.4,-0.0261379999999999
317.6,-0.0254310000000002
317.79999999999995,-0.0226320000000002
318.0,-0.0211730000000001
318.19999999999993,-0.0211190000000001
318.4,-0.0222350000000002
318.6,-0.0236480000000001
318.79999999999995,-0.024045
319.0,-0.025738
319.19999999999993,-0.0243649999999999
319.4,-0.0238710000000001
319.6,-0.0213840000000002
319.79999999999995,-0.0221900000000001
320.0,-0.0218670000000003
320.19999999999993,-0.0236460000000002
320.4,-0.0226610000000002
320.6,-0.0246310000000002
320.79999999999995,-0.024324
321.0,-0.0263280000000003
321.19999999999993,-0.025023
321.4,-0.0246189999999999
321.6,-0.0241169999999999
321.79999999999995,-0.0244490000000001
322.0,-0.022777
322.19999999999993,-0.0214050000000001
322.4,-0.0208150000000002
322.6,-0.018663
322.79999999999995,-0.0181460000000002
323.0,-0.0178830000000003
323.19999999999993,-0.0181819999999999
323.4,-0.0193799999999999
323.6,-0.020664
323.79999999999995,-0.0202379999999999
324.0,-0.019044
324.19999999999993,-0.0206500000000002
324.4,-0.0214560000000001
324.6,-0.0215070000000001
324.79999999999995,-0.0210099999999999
325.0,-0.0228350000000001
325.19999999999993,-0.022418
325.4,-0.0206780000000001
325.6,-0.0195199999999999
325.79999999999995,-0.020502
326.0,-0.0223949999999999
326.19999999999993,-0.0233370000000001
326.4,-0.02414
326.6,-0.023568
326.79999999999995,-0.0210560000000001
327.0,-0.0166490000000001
327.19999999999993,-0.0142420000000003
327.4,-0.012073
327.6,-0.012067
327.79999999999995,-0.015962
328.0,-0.019384
328.19999999999993,-0.0211700000000001
328.4,-0.022729
328.6,-0.0239739999999999
328.79999999999995,-0.020763
329.0,-0.018081
329.19999999999993,-0.0183200000000001
329.4,-0.0169960000000002
329.6,-0.0178440000000001
329.79999999999995,-0.019069
330.0,-0.020432
330.19999999999993,-0.020909
330.4,-0.0245360000000003
330.6,-0.0253130000000001
330.79999999999995,-0.0271890000000003
331.0,-0.027158
331.19999999999993,-0.0250110000000001
331.4,-0.021786
331.6,-0.0210590000000001
331.79999999999995,-0.0208620000000001
332.0,-0.0216310000000001
332.19999999999993,-0.0241700000000002
332.4,-0.025233
332.6,-0.0253529999999999
332.79999999999995,-0.0244949999999999
333.0,-0.0254609999999999
333.19999999999993,-0.025157
333.4,-0.0259020000000003
333.6,-0.0246189999999999
333.79999999999995,-0.0233080000000001
334.0,-0.0198979999999999
334.19999999999993,-0.0190680000000003
334.4,-0.0185889999999999
334.6,-0.0211870000000002
334.79999999999995,-0.023981
335.0,-0.025735
335.19999999999993,-0.0264999999999999
335.4,-0.0270540000000001
335.6,-0.0262730000000002
335.79999999999995,-0.0249260000000002
336.0,-0.025576
336.19999999999993,-0.026548
336.4,-0.0273980000000002
336.6,-0.0291749999999999
336.79999999999995,-0.030002
337.0,-0.0301500000000003
337.19999999999993,-0.0298060000000002
337.4,-0.0288690000000002
337.6,-0.0257300000000002
337.79999999999995,-0.0262130000000002
338.0,-0.0260760000000002
338.19999999999993,-0.0270990000000002
338.4,-0.0283770000000003
338.6,-0.0303690000000003
338.79999999999995,-0.029455
339.0,-0.031403
339.19999999999993,-0.030796
339.4,-0.032442
339.6,-0.036353
339.79999999999995,-0.0392179999999999
340.0,-0.0372859999999999
340.19999999999993,-0.0361549999999999
340.4,-0.0338229999999999
340.6,-0.0300690000000001
340.79999999999995,-0.0280720000000003
341.0,-0.029033
341.19999999999993,-0.0297930000000001
341.4,-0.0314870000000002
341.6,-0.0314019999999999
341.79999999999995,-0.0308749999999999
342.0,-0.0304820000000001
342.19999999999993,-0.0304030000000001
342.4,-0.0270000000000001
342.6,-0.0250639999999999
342.79999999999995,-0.0245320000000002
343.0,-0.0238620000000002
343.19999999999993,-0.021951
343.4,-0.022796
343.6,-0.0237600000000002
343.79999999999995,-0.0222410000000001
344.0,-0.0215750000000003
344.19999999999993,-0.0219970000000002
344.4,-0.0219
344.6,-0.0233989999999999
344.79999999999995,-0.026227
345.0,-0.0275020000000001
345.19999999999993,-0.0272270000000003
345.4,-0.0277310000000001
345.6,-0.0258320000000003
345.79999999999995,-0.025983
346.0,-0.0273890000000003
346.19999999999993,-0.0299450000000001
346.4,-0.0300739999999999
346.6,-0.0301490000000002
346.79999999999995,-0.0298640000000003
347.0,-0.0284500000000003
347.19999999999993,-0.0275549999999999
347.4,-0.026853
347.6,-0.0265170000000001
347.79999999999995,-0.0257230000000001
348.0,-0.026459
348.19999999999993,-0.0255970000000003
348.4,-0.0273500000000002
348.6,-0.0291380000000001
348.79999999999995,-0.0299240000000002
349.0,-0.0309380000000003
349.19999999999993,-0.0324930000000001
349.4,-0.0318560000000003
349.6,-0.0309310000000002
349.79999999999995,-0.03125
350.0,-0.0305630000000003
350.19999999999993,-0.0318560000000003
350.4,-0.0352399999999999
350.6,-0.0381180000000003
350.79999999999995,-0.0404530000000002
351.0,-0.0417840000000002
351.19999999999993,-0.0411239999999999
351.4,-0.0385750000000002
351.6,-0.0366490000000001
351.79999999999995,-0.0344640000000002
352.0,-0.0327090000000001
352.19999999999993,-0.0320409999999999
352.4,-0.0329600000000001
352.6,-0.0311380000000003
352.79999999999995,-0.0308809999999999
353.0,-0.0328910000000002
353.19999999999993,-0.0358010000000001
353.4,-0.0375119999999999
353.6,-0.0413749999999999
353.79999999999995,-0.0413770000000002
354.0,-0.038167
354.19999999999993,-0.0326310000000003
354.4,-0.0281649999999999
354.6,-0.0251130000000001
354.79999999999995,-0.024934
355.0,-0.0281770000000003
355.19999999999993,-0.0328460000000001
355.4,-0.0367230000000002
355.6,-0.0376980000000002
355.79999999999995,-0.0398130000000001
356.0,-0.039787
356.19999999999993,-0.0398840000000002
356.4,-0.0402940000000002
356.6,-0.043044
356.79999999999995,-0.0431180000000002
357.0,-0.0421650000000002
357.19999999999993,-0.0395530000000001
357.4,-0.0361540000000002
357.6,-0.032947
357.79999999999995,-0.0312840000000003
358.0,-0.0306960000000002
358.19999999999993,-0.0307680000000001
358.4,-0.0316900000000002
358.6,-0.0333000000000001
358.79999999999995,-0.0348950000000001
359.0,-0.0361489999999999
359.19999999999993,-0.037392
359.4,-0.0367130000000002
359.6,-0.0350840000000003
359.79999999999995,-0.0314810000000003
360.0,-0.0278300000000002
360.19999999999993,-0.0244880000000002
360.4,-0.0237000000000002
360.6,-0.023206
360.8,-0.026065
361.0,-0.0285109999999999
361.19999999999993,-0.0297490000000002
361.4,-0.030567
361.6,-0.0315099999999999
361.8,-0.0292180000000001
362.0,-0.0280520000000001
362.19999999999993,-0.028089
362.4,-0.0292350000000003
362.6,-0.0306990000000002
362.8,-0.0334250000000002
363.0,-0.0352939999999999
363.19999999999993,-0.0361250000000001
363.4,-0.035889
363.6,-0.033398
363.8,-0.0307090000000003
364.0,-0.0310840000000003
364.19999999999993,-0.03214
364.4,-0.0324400000000002
364.6,-0.0354830000000001
364.8,-0.0370110000000001
365.0,-0.0352190000000001
365.19999999999993,-0.0364050000000002
365.4,-0.0383330000000001
365.6,-0.0397609999999999
365.8,-0.040591
366.0,-0.0417629999999999
366.19999999999993,-0.0404720000000002
366.4,-0.0404810000000002
366.6,-0.0401510000000002
366.8,-0.0398230000000001
367.0,-0.040407
367.19999999999993,-0.0403190000000002
367.4,-0.0398
367.6,-0.0396640000000001
367.8,-0.0395190000000003
368.0,-0.03803
368.19999999999993,-0.0376020000000001
368.4,-0.0371680000000003
368.6,-0.0336980000000002
368.8,-0.034294
369.0,-0.035473
369.19999999999993,-0.0351250000000002
369.4,-0.0336780000000001
369.6,-0.0359380000000002
369.8,-0.0354499999999999
370.0,-0.0349509999999999
370.19999999999993,-0.037414
370.4,-0.0392030000000001
370.6,-0.0379119999999999
370.8,-0.0387240000000002
371.0,-0.0407060000000001
371.19999999999993,-0.0389470000000002
371.4,-0.038272
371.6,-0.0393180000000001
371.8,-0.0391319999999999
372.0,-0.03831
372.19999999999993,-0.0393700000000003
372.4,-0.039368
372.6,-0.039047
372.8,-0.039044
373.0,-0.0400740000000001
373.19999999999993,-0.0421680000000002
373.4,-0.0428649999999999
373.6,-0.042964
373.8,-0.04197
374.0,-0.0403329999999999
374.19999999999993,-0.037951
374.4,-0.0400360000000001
374.6,-0.040683
374.8,-0.039841
375.0,-0.0395600000000002
375.19999999999993,-0.040788
375.4,-0.0372050000000001
375.6,-0.0351780000000001
375.8,-0.0372099999999999
376.0,-0.0394879999999999
376.19999999999993,-0.037017
376.4,-0.036146
376.6,-0.033449
376.8,-0.0298190000000002
377.0,-0.0273829999999999
377.19999999999993,-0.0286410000000003
377.4,-0.030043
377.6,-0.0345180000000002
377.8,-0.038049
378.0,-0.0390230000000002
378.19999999999993,-0.0391340000000002
378.4,-0.0391080000000001
378.6,-0.037681
378.8,-0.0374880000000001
379.0,-0.0372600000000002
379.19999999999993,-0.0380679999999999
379.4,-0.038799
379.6,-0.0397660000000001
379.8,-0.0385310000000003
380.0,-0.0367999999999999
380.19999999999993,-0.0346679999999999
380.4,-0.0339740000000001
380.6,-0.0341340000000003
380.8,-0.0360610000000001
381.0,-0.036855
381.19999999999993,-0.0373550000000002
381.4,-0.0372590000000001
381.6,-0.0371969999999999
381.8,-0.0356469999999999
382.0,-0.0359220000000002
382.19999999999993,-0.0373070000000002
382.4,-0.0387150000000002
382.6,-0.0409320000000001
382.8,-0.043384
383.0,-0.0444970000000002
383.19999999999993,-0.0442690000000003
383.4,-0.0431120000000002
383.6,-0.0402910000000003
383.8,-0.0382679999999999
384.0,-0.0369960000000002
384.19999999999993,-0.036585
384.4,-0.039628
384.6,-0.0440520000000002
384.8,-0.0458790000000002
385.0,-0.0465360000000001
385.19999999999993,-0.0449900000000003
385.4,-0.0398339999999999
385.6,-0.0358640000000001
385.8,-0.0342549999999999
386.0,-0.032302
386.19999999999993,-0.033058
386.4,-0.036022
386.6,-0.0360450000000001
386.8,-0.0360469999999999
387.0,-0.0394400000000003
387.19999999999993,-0.0421119999999999
387.4,-0.042793
387.6,-0.04542
387.8,-0.048769
388.0,-0.0497930000000002
388.19999999999993,-0.0486949999999999
388.4,-0.0469159999999999
388.6,-0.0452110000000001
388.8,-0.0428619999999999
389.0,-0.0422510000000002
389.19999999999993,-0.0430380000000001
389.4,-0.0456579999999999
389.6,-0.0468100000000002
389.8,-0.0464519999999999
390.0,-0.0463070000000001
390.19999999999993,-0.0456890000000003
390.4,-0.0440620000000002
390.6,-0.0418720000000001
390.8,-0.0434890000000001
391.0,-0.0438089999999999
391.19999999999993,-0.0440680000000002
391.4,-0.0461500000000003
391.6,-0.047352
391.8,-0.0450120000000002
392.0,-0.0408530000000002
392.19999999999993,-0.0393730000000003
392.4,-0.036442
392.6,-0.0362390000000001
392.8,-0.037198
393.0,-0.0403200000000003
393.19999999999993,-0.0422410000000001
393.4,-0.04461
393.6,-0.0470600000000001
393.8,-0.0486660000000003
394.0,-0.0489490000000003
394.19999999999993,-0.0474780000000003
394.4,-0.046437
394.6,-0.0437600000000002
394.8,-0.0432260000000002
395.0,-0.0424480000000002
395.19999999999993,-0.0426570000000001
395.4,-0.0413080000000003
395.6,-0.0410790000000003
395.8,-0.0405290000000002
396.0,-0.0419490000000002
396.19999999999993,-0.0408379999999999
396.4,-0.0416720000000001
396.6,-0.040807
396.8,-0.0392239999999999
397.0,-0.0396469999999999
397.19999999999993,-0.0438610000000001
397.4,-0.0451399999999999
397.6,-0.047072
397.8,-0.0484230000000001
398.0,-0.046075
398.19999999999993,-0.0440849999999999
398.4,-0.0436990000000001
398.6,-0.043787
398.8,-0.0464459999999999
399.0,-0.0499940000000003
399.19999999999993,-0.0488460000000001
399.4,-0.0474939999999999
399.6,-0.0468130000000002
399.8,-0.044003
400.0,-0.0425740000000001
400.19999999999993,-0.0445060000000001
400.4,-0.0452970000000001
400.6,-0.0441250000000001
400.8,-0.0438360000000002
401.0,-0.0440330000000002
401.19999999999993,-0.0440249999999999
401.4,-0.0444740000000001
401.6,-0.0450370000000002
401.8,-0.043822
402.0,-0.0423390000000001
402.19999999999993,-0.0416440000000002
402.4,-0.0411870000000003
402.6,-0.0436070000000001
402.8,-0.0446340000000002
403.0,-0.043905
403.19999999999993,-0.0422009999999999
403.4,-0.0415350000000001
403.6,-0.0395449999999999
403.8,-0.040823
404.0,-0.0426160000000002
404.19999999999993,-0.0439310000000001
404.4,-0.044693
404.6,-0.0456000000000003
404.8,-0.0460690000000001
405.0,-0.047393
405.19999999999993,-0.0476430000000003
405.4,-0.048232
405.6,-0.0485850000000001
405.8,-0.0470260000000002
406.0,-0.0430220000000001
406.19999999999993,-0.040067
406.4,-0.0393940000000001
406.6,-0.0391300000000001
406.8,-0.0395700000000003
407.0,-0.041846
407.19999999999993,-0.044254
407.4,-0.0445570000000001
407.6,-0.0435940000000001
407.8,-0.043962
408.0,-0.045055
408.19999999999993,-0.0464390000000003
408.4,-0.0466139999999999
408.6,-0.0464550000000003
408.8,-0.0476849999999999
409.0,-0.0481890000000002
409.19999999999993,-0.0483220000000002
409.4,-0.0495300000000002
409.6,-0.0513970000000001
409.8,-0.050688
410.0,-0.0495970000000003
410.19999999999993,-0.048839
410.4,-0.0455149999999999
410.6,-0.0426640000000002
410.8,-0.0402880000000003
411.0,-0.0392840000000003
411.19999999999993,-0.0387310000000002
411.4,-0.0410810000000001
411.6,-0.0438170000000002
411.8,-0.0445630000000001
412.0,-0.0438550000000002
412.19999999999993,-0.0441890000000002
412.4,-0.0457020000000003
412.6,-0.0457400000000003
412.8,-0.0464519999999999
413.0,-0.047984
413.19999999999993,-0.0485350000000002
413.4,-0.0483250000000001
413.6,-0.0483250000000001
413.8,-0.051142
414.0,-0.0520050000000003
414.19999999999993,-0.0522810000000002
414.4,-0.0514040000000002
414.6,-0.0504000000000002
414.8,-0.0489100000000002
415.0,-0.049341
415.19999999999993,-0.0513259999999999
415.4,-0.050901
415.6,-0.050866
415.8,-0.049179
416.0,-0.0462930000000003
416.19999999999993,-0.043088
416.4,-0.0429870000000001
416.6,-0.0438560000000003
416.8,-0.0451170000000002
417.0,-0.0477030000000002
417.19999999999993,-0.049004
417.4,-0.050961
417.6,-0.0510480000000002
417.8,-0.050456
418.0,-0.0509790000000003
418.19999999999993,-0.0527760000000001
418.4,-0.0536259999999999
418.6,-0.0554339999999999
418.8,-0.057595
419.0,-0.0566120000000003
419.19999999999993,-0.054205
419.4,-0.0521060000000002
419.6,-0.0505660000000003
419.8,-0.0475850000000002
420.0,-0.0475060000000002
420.19999999999993,-0.0490829999999999
420.4,-0.0502220000000002
420.6,-0.0520230000000001
420.8,-0.0542130000000002
421.0,-0.0544220000000001
421.19999999999993,-0.0543180000000003
421.4,-0.0527790000000001
421.6,-0.0517130000000003
421.8,-0.0516350000000001
422.0,-0.051962
422.19999999999993,-0.0502169999999999
422.4,-0.0494380000000003
422.6,-0.0483410000000001
422.8,-0.049725
423.0,-0.0506280000000001
423.19999999999993,-0.0534340000000002
423.4,-0.0557769999999999
423.6,-0.0562819999999999
423.8,-0.0545770000000001
424.0,-0.0535170000000002
424.19999999999993,-0.0527239999999999
424.4,-0.051546
424.6,-0.0502420000000003
424.8,-0.0480690000000003
425.0,-0.04691
425.19999999999993,-0.0450690000000002
425.4,-0.0455499999999999
425.6,-0.0487040000000003
425.8,-0.0518740000000002
426.0,-0.0533420000000002
426.19999999999993,-0.0549240000000001
426.4,-0.0551590000000001
426.6,-0.0536560000000001
426.8,-0.0532180000000002
427.0,-0.0526729999999999
427.19999999999993,-0.0527790000000001
427.4,-0.0524170000000001
427.6,-0.0527950000000001
427.8,-0.0527380000000001
428.0,-0.0520340000000003
428.19999999999993,-0.0503500000000003
428.4,-0.0498440000000002
428.6,-0.0500290000000003
428.8,-0.051749
429.0,-0.0530189999999999
429.19999999999993,-0.0533879999999999
429.4,-0.0546299999999999
429.6,-0.0548250000000001
429.8,-0.0532570000000003
430.0,-0.0536229999999999
430.19999999999993,-0.0547600000000003
430.4,-0.0553829999999999
430.6,-0.0556400000000003
430.8,-0.0555769999999999
431.0,-0.0538609999999999
431.19999999999993,-0.0524979999999999
431.4,-0.0491960000000002
431.6,-0.046678
431.8,-0.0454160000000003
432.0,-0.045223
432.19999999999993,-0.0445360000000003
432.4,-0.0461110000000002
432.6,-0.0472360000000002
432.8,-0.0477910000000001
433.0,-0.0485269999999999
433.19999999999993,-0.0495540000000001
433.4,-0.0506890000000002
433.6,-0.051949
433.8,-0.0534540000000003
434.0,-0.0530620000000001
434.19999999999993,-0.052715
434.4,-0.0527600000000001
434.6,-0.0542090000000001
434.8,-0.0545140000000001
435.0,-0.0562439999999999
435.19999999999993,-0.057719
435.4,-0.0578989999999999
435.6,-0.0576630000000002
435.8,-0.055263
436.0,-0.0523169999999999
436.19999999999993,-0.0494890000000003
436.4,-0.046729
436.6,-0.0447010000000003
436.8,-0.0477180000000001
437.0,-0.0524249999999999
437.19999999999993,-0.0543720000000003
437.4,-0.0567960000000002
437.6,-0.0578039999999999
437.8,-0.0565360000000003
438.0,-0.0542770000000003
438.19999999999993,-0.0549850000000002
438.4,-0.0538820000000002
438.6,-0.0530760000000003
438.8,-0.0541059999999999
439.0,-0.0551650000000001
439.19999999999993,-0.0549170000000001
439.4,-0.0570729999999999
439.6,-0.0582009999999999
439.8,-0.0575520000000002
440.0,-0.0566850000000003
440.19999999999993,-0.0552810000000003
440.4,-0.0534129999999999
440.6,-0.051663
440.8,-0.051104
441.0,-0.0503949999999999
441.19999999999993,-0.0491350000000001
441.4,-0.047498
441.6,-0.046148
441.8,-0.0461680000000002
442.0,-0.0461690000000003
442.19999999999993,-0.0486780000000002
442.4,-0.0505889999999999
442.6,-0.0517590000000001
442.8,-0.0499149999999999
443.0,-0.0508360000000003
443.19999999999993,-0.0512049999999999
443.4,-0.0511410000000003
443.6,-0.0508999999999999
443.8,-0.0539119999999999
444.0,-0.054596
444.19999999999993,-0.0552909999999999
444.4,-0.0560910000000003
444.6,-0.0565630000000001
444.8,-0.0560249999999999
445.0,-0.0552170000000002
445.19999999999993,-0.0537550000000002
445.4,-0.0528820000000003
445.6,-0.0539990000000001
445.8,-0.0543690000000003
446.0,-0.0545940000000002
446.19999999999993,-0.0569999999999999
446.4,-0.0579640000000001
446.6,-0.0563670000000002
446.8,-0.0532180000000002
447.0,-0.0511720000000002
447.19999999999993,-0.0476309999999999
447.4,-0.0466420000000002
447.6,-0.0485280000000001
447.8,-0.0513790000000002
448.0,-0.053433
448.19999999999993,-0.053992
448.4,-0.0537550000000002
448.6,-0.053849
448.8,-0.0534829999999999
449.0,-0.0539629999999999
449.19999999999993,-0.05614
449.4,-0.0574150000000002
449.6,-0.05634
449.8,-0.056724
450.0,-0.0572880000000002
450.19999999999993,-0.0578950000000002
450.4,-0.0593020000000001
450.6,-0.059403
450.8,-0.0584540000000002
451.0,-0.057617
451.19999999999993,-0.0573019999999999
451.4,-0.0552040000000002
451.6,-0.054526
451.8,-0.0553259999999999
452.0,-0.0552909999999999
452.19999999999993,-0.0544990000000003
452.4,-0.0540359999999999
452.6,-0.054316
452.8,-0.0530250000000003
453.0,-0.0536700000000003
453.19999999999993,-0.0527770000000002
453.4,-0.051806
453.6,-0.0507159999999999
453.8,-0.0516900000000002
454.0,-0.0500370000000001
454.19999999999993,-0.0520140000000002
454.4,-0.0554559999999999
454.6,-0.058399
454.8,-0.0579590000000003
455.0,-0.0607100000000002
455.19999999999993,-0.0603340000000001
455.4,-0.0590800000000002
455.6,-0.058351
455.8,-0.0584260000000003
456.0,-0.0561670000000003
456.19999999999993,-0.054675
456.4,-0.0543469999999999
456.6,-0.0541150000000003
456.8,-0.0524560000000002
457.0,-0.051743
457.19999999999993,-0.0525070000000003
457.4,-0.05363
457.6,-0.0536609999999999
457.8,-0.0550749999999999
458.0,-0.0565130000000002
458.19999999999993,-0.0564300000000002
458.4,-0.0548700000000001
458.6,-0.0524170000000001
458.8,-0.0519480000000003
459.0,-0.0507910000000002
459.19999999999993,-0.0522720000000003
459.4,-0.0536590000000001
459.6,-0.0575680000000002
459.8,-0.0603899999999999
460.0,-0.0623300000000002
460.19999999999993,-0.06007
460.4,-0.0595790000000002
460.6,-0.0576639999999999
460.8,-0.054643
461.0,-0.0525550000000003
461.19999999999993,-0.05492
461.4,-0.0554049999999999
461.6,-0.0565630000000001
461.8,-0.0596000000000001
462.0,-0.061442
462.19999999999993,-0.0604819999999999
462.4,-0.0597820000000002
462.6,-0.0605070000000003
462.8,-0.0613080000000003
463.0,-0.0628730000000001
463.19999999999993,-0.0628160000000002
463.4,-0.0610530000000002
463.6,-0.059336
463.8,-0.0570790000000003
464.0,-0.0533490000000003
464.19999999999993,-0.0534180000000001
464.4,-0.0553440000000002
464.6,-0.0551410000000003
464.8,-0.054338
465.0,-0.0546480000000002
465.19999999999993,-0.0532080000000001
465.4,-0.0515970000000001
465.6,-0.0537469999999999
465.8,-0.0548200000000003
466.0,-0.0562740000000001
466.19999999999993,-0.0585010000000001
466.4,-0.0611030000000001
466.6,-0.0602520000000001
466.8,-0.0605950000000001
467.0,-0.0610129999999999
467.19999999999993,-0.0598450000000001
467.4,-0.0604500000000003
467.6,-0.0595959999999999
467.8,-0.0592730000000001
468.0,-0.060222
468.19999999999993,-0.0608140000000001
468.4,-0.0590490000000003
468.6,-0.0579450000000001
468.8,-0.0570020000000002
469.0,-0.0560680000000002
469.19999999999993,-0.0585089999999999
469.4,-0.0613680000000003
469.6,-0.064521
469.8,-0.0670100000000002
470.0,-0.0683130000000002
470.19999999999993,-0.0650170000000001
470.4,-0.061388
470.6,-0.0607299999999999
470.8,-0.0587310000000003
471.0,-0.0579930000000001
471.19999999999993,-0.059015
471.4,-0.0605790000000001
471.6,-0.059009
471.8,-0.059333
472.0,-0.0583360000000001
472.19999999999993,-0.0566539999999999
472.4,-0.0563549999999999
472.6,-0.0570680000000001
472.8,-0.0561549999999999
473.0,-0.05736
473.19999999999993,-0.0600580000000001
473.4,-0.0588570000000001
473.6,-0.0582060000000002
473.8,-0.0594300000000003
474.0,-0.059012
474.19999999999993,-0.0575640000000001
474.4,-0.057423
474.6,-0.0571920000000001
474.8,-0.0559160000000003
475.0,-0.0544130000000002
475.19999999999993,-0.0537940000000003
475.4,-0.0549410000000003
475.6,-0.0573960000000002
475.8,-0.0602770000000001
476.0,-0.0619620000000002
476.19999999999993,-0.062923
476.4,-0.0630619999999999
476.6,-0.0614730000000003
476.8,-0.0592019999999999
477.0,-0.0581650000000002
477.19999999999993,-0.0575700000000001
477.4,-0.0599419999999999
477.6,-0.061773
477.8,-0.062507
478.0,-0.0606180000000002
478.19999999999993,-0.059504
478.4,-0.0559130000000003
478.6,-0.0545930000000001
478.8,-0.0539080000000002
479.0,-0.0563660000000001
479.19999999999993,-0.057779
479.4,-0.060832
479.6,-0.063657
479.8,-0.0668830000000002
480.0,-0.0680520000000002
480.19999999999993,-0.0689520000000003
480.4,-0.068759
480.6,-0.0672030000000001
480.8,-0.0661140000000002
481.0,-0.0659860000000001
481.19999999999993,-0.0660009999999999
481.4,-0.064321
481.6,-0.063755
481.8,-0.0640100000000001
482.0,-0.0634430000000003
482.19999999999993,-0.0633730000000003
482.4,-0.0650870000000001
482.6,-0.0642800000000001
482.8,-0.062078
483.0,-0.0606980000000003
483.19999999999993,-0.060006
483.4,-0.0594460000000003
483.6,-0.0623249999999999
483.8,-0.0645990000000003
484.0,-0.0650140000000001
484.19999999999993,-0.0650750000000002
484.4,-0.0647410000000001
484.6,-0.061061
484.8,-0.0595030000000003
485.0,-0.0587400000000002
485.19999999999993,-0.0574310000000002
485.4,-0.0570910000000002
485.6,-0.0571000000000001
485.8,-0.056181
486.0,-0.0560900000000001
486.19999999999993,-0.0565060000000001
486.4,-0.0565830000000002
486.6,-0.0581170000000001
486.8,-0.0585189999999999
487.0,-0.0610220000000003
487.19999999999993,-0.0648509999999999
487.4,-0.068635
487.6,-0.070313
487.8,-0.073074
488.0,-0.0729390000000003
488.19999999999993,-0.069903
488.4,-0.0637340000000001
488.6,-0.0603199999999999
488.8,-0.0588969999999999
489.0,-0.0579659999999999
489.19999999999993,-0.0588740000000003
489.4,-0.06068
489.6,-0.0615860000000001
489.8,-0.0605230000000003
490.0,-0.0608630000000003
490.19999999999993,-0.06007
490.4,-0.0601549999999999
490.6,-0.0589370000000002
490.8,-0.0570870000000001
491.0,-0.056813
491.19999999999993,-0.0576229999999999
491.4,-0.0584999999999999
491.6,-0.0599690000000001
491.8,-0.0632680000000003
492.0,-0.0638339999999999
492.19999999999993,-0.0634369999999999
492.4,-0.0619460000000002
492.6,-0.0612509999999999
492.8,-0.0594540000000001
493.0,-0.05789
493.19999999999993,-0.0575620000000003
493.4,-0.059393
493.6,-0.0615240000000003
493.8,-0.0616280000000002
494.0,-0.0631030000000003
494.19999999999993,-0.065226
494.4,-0.065261
494.6,-0.0639389999999999
494.8,-0.0644520000000001
495.0,-0.0633000000000003
495.19999999999993,-0.0592860000000001
495.4,-0.0583240000000002
495.6,-0.0579180000000003
495.8,-0.0573620000000003
496.0,-0.0576190000000003
496.19999999999993,-0.0603340000000001
496.4,-0.0602680000000002
496.6,-0.0606140000000001
496.8,-0.0605980000000001
497.0,-0.0620190000000002
497.19999999999993,-0.062904
497.4,-0.0639340000000001
497.6,-0.0648219999999999
497.8,-0.0654310000000002
498.0,-0.0635280000000002
498.19999999999993,-0.059841
498.4,-0.0587090000000003
498.6,-0.057439
498.8,-0.0587310000000003
499.0,-0.0608919999999999
499.19999999999993,-0.0656670000000003
499.4,-0.0653170000000002
499.6,-0.0636840000000003
499.8,-0.0621710000000002
500.0,-0.0621840000000002
500.19999999999993,-0.0606919999999999
500.4,-0.063495
500.6,-0.0658579999999999
500.8,-0.066192
501.0,-0.065992
501.19999999999993,-0.0667090000000003
501.4,-0.064162
501.6,-0.0645850000000001
501.8,-0.0650370000000002
502.0,-0.0644680000000001
502.19999999999993,-0.0645990000000003
502.4,-0.0665080000000002
502.6,-0.0668470000000001
502.8,-0.0669159999999999
503.0,-0.0666350000000002
503.19999999999993,-0.0651700000000001
503.4,-0.0637220000000002
503.6,-0.062758
503.8,-0.0614259999999999
504.0,-0.0615740000000002
504.19999999999993,-0.0620290000000003
504.4,-0.0629509999999999
504.6,-0.0630410000000001
504.8,-0.0652150000000002
505.0,-0.0662960000000003
505.19999999999993,-0.0670350000000001
505.4,-0.0678130000000001
505.6,-0.0675460000000001
505.8,-0.0643700000000002
506.0,-0.0632510000000001
506.19999999999993,-0.0629410000000003
506.4,-0.0615460000000003
506.6,-0.061531
506.8,-0.063619
507.00000000000006,-0.0635080000000001
507.1999999999999,-0.06149
507.3999999999999,-0.0605169999999999
507.6,-0.059701
507.8,-0.0598879999999999
508.00000000000006,-0.061639
508.1999999999999,-0.061347
508.3999999999999,-0.0607030000000001
508.6,-0.0604650000000002
508.8,-0.0586839999999999
509.00000000000006,-0.0580860000000003
509.1999999999999,-0.0611350000000001
509.3999999999999,-0.0653260000000002
509.6,-0.0688200000000001
509.8,-0.0710740000000003
510.00000000000006,-0.0708619999999999
510.1999999999999,-0.0693130000000001
510.3999999999999,-0.0667240000000002
510.6,-0.064292
510.8,-0.063199
511.00000000000006,-0.0628640000000002
511.1999999999999,-0.0634480000000001
511.3999999999999,-0.0651860000000001
511.6,-0.0657520000000002
511.8,-0.066869
512.0,-0.067342
512.1999999999998,-0.068635
512.3999999999999,-0.0681670000000003
512.5999999999999,-0.0699360000000002
512.8,-0.069989
513.0,-0.0702960000000003
513.1999999999998,-0.0689890000000001
513.3999999999999,-0.0682710000000001
513.5999999999999,-0.0671910000000002
513.8,-0.0649060000000001
514.0,-0.0618830000000003
514.1999999999998,-0.061274
514.3999999999999,-0.0609220000000001
514.5999999999999,-0.059565
514.8,-0.0605510000000002
515.0,-0.0628570000000001
515.1999999999998,-0.064467
515.3999999999999,-0.0656470000000002
515.5999999999999,-0.0673400000000001
515.8,-0.0682200000000001
516.0,-0.0682100000000001
516.1999999999998,-0.066802
516.3999999999999,-0.0660480000000003
516.5999999999999,-0.065693
516.8,-0.0659130000000001
517.0,-0.0663650000000002
517.1999999999998,-0.0677940000000001
517.3999999999999,-0.068893
517.5999999999999,-0.0696720000000001
517.8,-0.0711240000000001
518.0,-0.0695930000000002
518.1999999999998,-0.0654319999999999
518.3999999999999,-0.064778
518.5999999999999,-0.0644940000000002
518.8,-0.0632969999999999
519.0,-0.066408
519.1999999999998,-0.0712100000000002
519.3999999999999,-0.0712110000000003
519.5999999999999,-0.0701880000000003
519.8,-0.0694190000000003
520.0,-0.0666600000000001
520.1999999999998,-0.0633600000000003
520.3999999999999,-0.063415
520.5999999999999,-0.063091
520.8,-0.0634860000000001
521.0,-0.0661520000000002
521.1999999999998,-0.068378
521.3999999999999,-0.0685160000000002
521.5999999999999,-0.071145
521.8,-0.0714610000000002
522.0,-0.0691640000000002
522.1999999999998,-0.0688980000000003
522.3999999999999,-0.0688810000000001
522.5999999999999,-0.0694890000000003
522.8,-0.0709310000000003
523.0,-0.0728910000000002
523.1999999999998,-0.0728660000000003
523.3999999999999,-0.0726940000000002
523.5999999999999,-0.069652
523.8,-0.069309
524.0,-0.0679590000000001
524.1999999999998,-0.068378
524.3999999999999,-0.068988
524.5999999999999,-0.068937
524.8,-0.0659040000000001
525.0,-0.0648790000000003
525.1999999999998,-0.0650189999999999
525.3999999999999,-0.0658039999999999
525.5999999999999,-0.0669620000000001
525.8,-0.0696220000000003
526.0,-0.069585
526.1999999999998,-0.0685320000000002
526.3999999999999,-0.067914
526.5999999999999,-0.0680900000000002
526.8,-0.0677000000000003
527.0,-0.069474
527.1999999999998,-0.071298
527.3999999999999,-0.0718960000000001
527.5999999999999,-0.070357
527.8,-0.0708999999999999
528.0,-0.0700150000000001
528.1999999999998,-0.0680080000000002
528.3999999999999,-0.0671340000000002
528.5999999999999,-0.068508
528.8,-0.0681090000000002
529.0,-0.0685070000000003
529.1999999999998,-0.0698670000000003
529.3999999999999,-0.0687920000000001
529.5999999999999,-0.0681340000000001
529.8,-0.0678670000000001
530.0,-0.0700250000000002
530.1999999999998,-0.0727120000000001
530.3999999999999,-0.0743200000000001
530.5999999999999,-0.0736080000000001
530.8,-0.0722390000000001
531.0,-0.070071
531.1999999999998,-0.0674990000000002
531.3999999999999,-0.0671539999999999
531.5999999999999,-0.0686370000000002
531.8,-0.0709300000000001
532.0,-0.072362
532.1999999999998,-0.0735480000000001
532.3999999999999,-0.0730850000000002
532.5999999999999,-0.0721260000000003
532.8,-0.0722420000000001
533.0,-0.0722050000000003
533.1999999999998,-0.0727290000000002
533.3999999999999,-0.0743150000000003
533.5999999999999,-0.0754719999999999
533.8,-0.072187
534.0,-0.0700440000000002
534.1999999999998,-0.0672220000000001
534.3999999999999,-0.0658480000000003
534.5999999999999,-0.066561
534.8,-0.070681
535.0,-0.0721030000000002
535.1999999999998,-0.0728360000000001
535.3999999999999,-0.0721920000000002
535.5999999999999,-0.0694159999999999
535.8,-0.0659119999999999
536.0,-0.0642949999999999
536.1999999999998,-0.0633400000000001
536.3999999999999,-0.0649010000000003
536.5999999999999,-0.0682960000000001
536.8,-0.0710070000000002
537.0,-0.0723519999999999
537.1999999999998,-0.0729800000000002
537.3999999999999,-0.0714399999999999
537.5999999999999,-0.0694530000000002
537.8,-0.0693330000000003
538.0,-0.0683709999999999
538.1999999999998,-0.0675690000000002
538.3999999999999,-0.0680770000000001
538.5999999999999,-0.0697320000000001
538.8,-0.0689070000000002
539.0,-0.0702980000000002
539.1999999999998,-0.0713370000000002
539.3999999999999,-0.0706480000000002
539.5999999999999,-0.0699499999999999
539.8,-0.070443
540.0,-0.070122
540.1999999999998,-0.0698980000000002
540.3999999999999,-0.0708489999999999
540.5999999999999,-0.0693049999999999
540.8,-0.068044
541.0,-0.067676
541.1999999999998,-0.0684340000000003
541.3999999999999,-0.0698449999999999
541.5999999999999,-0.070227
541.8,-0.069153
542.0,-0.0688460000000001
542.1999999999998,-0.0704660000000001
542.3999999999999,-0.0708649999999999
542.5999999999999,-0.0727160000000002
542.8,-0.07519
543.0,-0.0751349999999999
543.1999999999998,-0.071523
543.3999999999999,-0.0674909999999999
543.5999999999999,-0.0662199999999999
543.8,-0.0648889999999999
544.0,-0.0643790000000001
544.1999999999998,-0.0642930000000001
544.3999999999999,-0.0656799999999999
544.5999999999999,-0.0654150000000002
544.8,-0.0651559999999999
545.0,-0.0653140000000003
545.1999999999998,-0.0656220000000002
545.3999999999999,-0.0631750000000002
545.5999999999999,-0.0610319999999999
545.8,-0.0634339999999999
546.0,-0.0660169999999999
546.1999999999998,-0.067882
546.3999999999999,-0.072718
546.5999999999999,-0.0767030000000001
546.8,-0.0753780000000001
547.0,-0.0736829999999999
547.1999999999998,-0.0729779999999999
547.3999999999999,-0.0717660000000002
547.5999999999999,-0.0712900000000003
547.8,-0.0735239999999999
548.0,-0.074179
548.1999999999998,-0.0751660000000002
548.3999999999999,-0.0753829999999999
548.5999999999999,-0.0733000000000001
548.8,-0.069992
549.0,-0.070214
549.1999999999998,-0.0718590000000003
549.3999999999999,-0.0727510000000002
549.5999999999999,-0.0755810000000001
549.8,-0.0782519999999999
550.0,-0.078516
550.1999999999998,-0.0772380000000003
550.3999999999999,-0.077855
550.5999999999999,-0.0772289999999999
550.8,-0.0773779999999999
551.0,-0.07667
551.1999999999998,-0.073665
551.3999999999999,-0.0716399999999999
551.5999999999999,-0.0710930000000003
551.8,-0.0717970000000001
552.0,-0.0740830000000003
552.1999999999998,-0.0777019999999999
552.3999999999999,-0.0780150000000001
552.5999999999999,-0.0763350000000002
552.8,-0.0739420000000001
553.0,-0.0696479999999999
553.1999999999998,-0.0686150000000003
553.3999999999999,-0.0706130000000002
553.5999999999999,-0.074554
553.8,-0.0772140000000001
554.0,-0.0798580000000002
554.1999999999998,-0.0795300000000001
554.3999999999999,-0.0781800000000001
554.5999999999999,-0.0769070000000002
554.8,-0.074732
555.0,-0.0725899999999999
555.1999999999998,-0.0702199999999999
555.3999999999999,-0.0675470000000002
555.5999999999999,-0.0639890000000003
555.8,-0.0628740000000003
556.0,-0.064238
556.1999999999998,-0.0652300000000001
556.3999999999999,-0.0665370000000002
556.5999999999999,-0.0681899999999999
556.8,-0.069938
557.0,-0.0719020000000001
557.1999999999998,-0.0736940000000001
557.3999999999999,-0.0723329999999999
557.5999999999999,-0.0698989999999999
557.8,-0.067952
558.0,-0.0646120000000003
558.1999999999998,-0.0640309999999999
558.3999999999999,-0.0647790000000001
558.5999999999999,-0.0670830000000002
558.8,-0.0686710000000001
559.0,-0.0711710000000001
559.1999999999998,-0.0715410000000003
559.3999999999999,-0.073147
559.5999999999999,-0.0756350000000001
559.8,-0.075917
560.0,-0.075952
560.1999999999998,-0.0751650000000001
560.3999999999999,-0.074456
560.5999999999999,-0.0722360000000001
560.8,-0.0740980000000002
561.0,-0.075212
561.1999999999998,-0.0777719999999999
561.3999999999999,-0.0809600000000001
561.5999999999999,-0.0827010000000001
561.8,-0.0795259999999999
562.0,-0.0779260000000001
562.1999999999998,-0.0759890000000003
562.3999999999999,-0.0742420000000003
562.5999999999999,-0.0750320000000002
562.8,-0.0786250000000001
563.0,-0.0790220000000001
563.1999999999998,-0.0783800000000001
563.3999999999999,-0.0761410000000002
563.5999999999999,-0.0734060000000003
563.8,-0.070945
564.0,-0.0699659999999999
564.1999999999998,-0.0700980000000002
564.3999999999999,-0.0709360000000001
564.5999999999999,-0.070732
564.8,-0.069493
565.0,-0.0694440000000002
565.1999999999998,-0.0714740000000002
565.3999999999999,-0.0724370000000003
565.5999999999999,-0.0718369999999999
565.8,-0.0711159999999999
566.0,-0.0699770000000001
566.1999999999998,-0.0674990000000002
566.3999999999999,-0.067218
566.5999999999999,-0.0695209999999999
566.8,-0.0714969999999999
567.0,-0.0725130000000002
567.1999999999998,-0.0732680000000001
567.3999999999999,-0.0715310000000002
567.5999999999999,-0.0714770000000002
567.8,-0.0713889999999999
568.0,-0.0727360000000003
568.1999999999998,-0.0732110000000001
568.3999999999999,-0.0751210000000002
568.5999999999999,-0.0741260000000001
568.8,-0.074268
568.9999999999998,-0.0733360000000002
569.1999999999998,-0.074608
569.3999999999999,-0.0749300000000001
569.5999999999999,-0.0744199999999999
569.8,-0.072454
569.9999999999998,-0.0719700000000003
570.1999999999998,-0.070662
570.3999999999999,-0.0718550000000002
570.5999999999999,-0.074357
570.8,-0.0770240000000002
570.9999999999998,-0.0772060000000003
571.1999999999998,-0.076842
571.3999999999999,-0.0745759999999999
571.5999999999999,-0.0734810000000001
571.8,-0.0724140000000002
571.9999999999998,-0.0708809999999999
572.1999999999998,-0.0692400000000001
572.3999999999999,-0.0679540000000002
572.5999999999999,-0.0672040000000002
572.8,-0.0669010000000001
572.9999999999998,-0.0682659999999999
573.1999999999998,-0.071606
573.3999999999999,-0.0755780000000001
573.5999999999999,-0.0759069999999999
573.8,-0.0748630000000001
573.9999999999998,-0.0727770000000003
574.1999999999998,-0.069474
574.3999999999999,-0.0672450000000002
574.5999999999999,-0.068324
574.8,-0.070672
574.9999999999998,-0.0742980000000002
575.1999999999998,-0.0775100000000001
575.3999999999999,-0.0762650000000002
575.5999999999999,-0.0731749999999999
575.8,-0.072273
575.9999999999998,-0.0720940000000003
576.1999999999998,-0.0728620000000002
576.3999999999999,-0.0745740000000001
576.5999999999999,-0.0778190000000003
576.8,-0.0773260000000002
576.9999999999998,-0.0783500000000003
577.1999999999998,-0.0776289999999999
577.3999999999999,-0.0784470000000001
577.5999999999999,-0.0784580000000003
577.8,-0.079466
577.9999999999998,-0.0763720000000001
578.1999999999998,-0.0744030000000002
578.3999999999999,-0.07268
578.5999999999999,-0.0697520000000002
578.8,-0.069814
578.9999999999998,-0.071571
579.1999999999998,-0.0734639999999999
579.3999999999999,-0.0728189999999999
579.5999999999999,-0.0733450000000002
579.8,-0.0733160000000001
579.9999999999998,-0.0731999999999999
580.1999999999998,-0.0727459999999999
580.3999999999999,-0.073757
580.5999999999999,-0.0757880000000001
580.8,-0.07566
580.9999999999998,-0.07694
581.1999999999998,-0.0772539999999999
581.3999999999999,-0.0781720000000003
581.5999999999999,-0.0759229999999999
581.8,-0.073798
581.9999999999998,-0.0706640000000002
582.1999999999998,-0.0688520000000001
582.3999999999999,-0.0672070000000002
582.5999999999999,-0.0686620000000002
582.8,-0.0691749999999999
582.9999999999998,-0.0694799999999999
583.1999999999998,-0.069649
583.3999999999999,-0.0708980000000001
583.5999999999999,-0.0704549999999999
583.8,-0.0730050000000002
583.9999999999998,-0.074481
584.1999999999998,-0.0752670000000002
584.3999999999999,-0.0732829999999999
584.5999999999999,-0.0723510000000002
584.8,-0.0696099999999999
584.9999999999998,-0.0697149999999999
585.1999999999998,-0.0705
585.3999999999999,-0.0735380000000001
585.5999999999999,-0.0751530000000002
585.8,-0.0761320000000003
585.9999999999998,-0.0764230000000001
586.1999999999998,-0.0770820000000003
586.3999999999999,-0.0779800000000001
586.5999999999999,-0.0792130000000002
586.8,-0.080241
586.9999999999998,-0.080394
587.1999999999998,-0.0787660000000003
587.3999999999999,-0.0740060000000002
587.5999999999999,-0.071739
587.8,-0.0704510000000002
587.9999999999998,-0.0700160000000003
588.1999999999998,-0.0715129999999999
588.3999999999999,-0.07423
588.5999999999999,-0.075695
588.8,-0.0766310000000003
588.9999999999998,-0.076565
589.1999999999998,-0.0738250000000002
589.3999999999999,-0.0738690000000001
589.5999999999999,-0.0738160000000003
589.8,-0.072705
589.9999999999998,-0.0701710000000002
590.1999999999998,-0.0701689999999999
590.3999999999999,-0.0695580000000002
590.5999999999999,-0.0689870000000003
590.8,-0.0707660000000003
590.9999999999998,-0.0728780000000002
591.1999999999998,-0.0730310000000002
591.3999999999999,-0.0740880000000001
591.5999999999999,-0.0743119999999999
591.8,-0.0729770000000002
591.9999999999998,-0.0731490000000003
592.1999999999998,-0.0738220000000002
592.3999999999999,-0.0728059999999999
592.5999999999999,-0.0733730000000001
592.8,-0.0756589999999999
592.9999999999998,-0.076788
593.1999999999998,-0.0791379999999999
593.3999999999999,-0.0796939999999999
593.5999999999999,-0.0780820000000002
593.8,-0.0759069999999999
593.9999999999998,-0.0745170000000001
594.1999999999998,-0.0720680000000002
