Time (s),Shift (nm)
0.0,0.0
0.1999999999999886,0.0014069999999999
0.4000000000000341,0.0028599999999998
0.6000000000000227,0.0033669999999998
0.8000000000000114,0.0024419999999998
1.0,0.0021009999999999
1.1999999999999886,0.0013059999999998
1.400000000000034,0.0010889999999998
1.6000000000000227,0.0012039999999999
1.8000000000000114,0.0023709999999999
2.0,0.0031079999999998
2.1999999999999886,0.005228
2.400000000000034,0.0061549999999999
2.6000000000000227,0.0068469999999998
2.800000000000012,0.0069759999999998
3.0,0.0070709999999998
3.1999999999999886,0.0086219999999999
3.400000000000034,0.0102739999999998
3.6000000000000227,0.0107699999999999
3.8000000000000114,0.0100109999999999
4.0,0.0098309999999999
4.199999999999989,0.0078449999999998
4.400000000000034,0.0070719999999999
4.600000000000023,0.005506
4.800000000000011,0.003236
5.0,-0.000164
5.199999999999989,-0.002107
5.400000000000034,-0.0027860000000001
5.600000000000023,-0.0006810000000001
5.800000000000011,0.0048849999999998
6.0,0.010197
6.199999999999989,0.013714
6.400000000000034,0.0115189999999998
6.600000000000023,0.006402
6.800000000000011,0.0017009999999999
7.0,-0.0018200000000001
7.199999999999989,-0.0047730000000001
7.400000000000034,-0.0039360000000001
7.600000000000023,-0.0010180000000001
7.800000000000011,-0.001678
8.0,-0.0036789999999999
8.199999999999989,-0.0038870000000001
8.400000000000034,-0.004267
8.600000000000023,-0.004075
8.800000000000011,-0.0032210000000001
9.0,-0.0028890000000001
9.199999999999989,-0.004331
9.400000000000034,-0.0051430000000001
9.600000000000025,-0.004782
9.800000000000011,-0.0022220000000001
10.0,0.0005529999999998
10.199999999999989,0.0015539999999998
10.400000000000034,0.0040869999999999
10.600000000000025,0.0042259999999998
10.800000000000011,0.0032599999999998
11.0,0.0019019999999998
11.199999999999989,0.0022059999999999
11.400000000000034,0.0007669999999999
11.600000000000025,0.000205
11.800000000000011,-0.00031
12.0,-0.000213
12.199999999999989,-5.000000000010552e-05
12.400000000000034,-8.400000000019503e-05
12.600000000000025,0.0004539999999999
12.800000000000011,-0.00011
13.0,0.000483
13.199999999999989,0.0009459999999998
13.400000000000034,0.001417
13.600000000000025,0.0003489999999999
13.800000000000011,-0.000755
14.0,-0.002583
14.199999999999989,-0.0044620000000001
14.400000000000034,-0.0064710000000001
14.600000000000025,-0.0068620000000001
14.800000000000011,-0.005384
15.0,-0.0019489999999999
15.199999999999989,0.0023879999999998
15.400000000000034,0.0068469999999998
15.600000000000025,0.0084539999999999
15.800000000000011,0.0091399999999999
16.0,0.0084409999999999
16.19999999999999,0.0065809999999999
16.400000000000034,0.0054139999999998
16.600000000000023,0.006699
16.80000000000001,0.0071689999999999
17.0,0.0069239999999999
17.19999999999999,0.0060719999999998
17.400000000000034,0.0047639999999999
17.600000000000023,0.0022419999999998
17.80000000000001,-0.000323
18.0,-0.002671
18.19999999999999,-0.003648
18.400000000000038,-0.0037880000000001
18.600000000000023,-0.0019660000000001
18.80000000000001,0.0003959999999998
19.0,0.0020929999999999
19.19999999999999,0.0022449999999998
19.400000000000038,-0.0001840000000001
19.600000000000023,-0.0042200000000001
19.80000000000001,-0.0061010000000001
20.0,-0.005783
20.19999999999999,-0.004402
20.400000000000038,-0.0024160000000001
20.600000000000023,0.0012469999999999
20.80000000000001,0.0029449999999999
21.0,0.0012929999999999
21.19999999999999,-0.0001710000000001
21.400000000000038,-0.0009069999999999
21.600000000000023,-0.001079
21.80000000000001,-0.002639
22.0,-0.0019569999999999
22.19999999999999,-0.0023490000000001
22.400000000000038,-0.0026300000000001
22.600000000000023,-0.0056090000000001
22.80000000000001,-0.005738
23.0,-0.005767
23.19999999999999,-0.0044710000000001
23.400000000000038,-0.0026289999999999
23.600000000000023,-0.0012659999999999
23.80000000000001,0.0002079999999999
24.0,-0.000202
24.19999999999999,0.0004519999999998
24.400000000000038,-0.001201
24.600000000000023,-0.0014530000000001
24.80000000000001,-0.001792
25.0,-0.0002440000000001
25.19999999999999,-0.0015150000000001
25.400000000000038,-0.00204
25.600000000000023,-0.001087
25.80000000000001,-0.0019690000000001
26.0,-0.0014740000000001
26.19999999999999,-0.000453
26.400000000000038,0.0005679999999999
26.600000000000023,0.0006679999999998
26.80000000000001,0.0019379999999999
27.0,0.002429
27.19999999999999,0.0032719999999999
27.400000000000038,0.0047369999999999
27.600000000000023,0.0051349999999998
27.80000000000001,0.0036959999999999
28.0,0.0012269999999998
28.19999999999999,-0.0008259999999999
28.400000000000038,-0.0031039999999999
28.600000000000023,-0.0038880000000001
28.80000000000001,-0.0027750000000001
29.0,-0.0008000000000001
29.19999999999999,-0.000151
29.400000000000038,0.0026909999999999
29.600000000000023,0.0036429999999998
29.80000000000001,0.0041069999999998
30.0,0.0025729999999999
30.19999999999999,0.0030239999999999
30.400000000000038,0.0011029999999998
30.600000000000023,-0.0008080000000001
30.80000000000001,-0.0022390000000001
31.0,-0.0007380000000001
31.19999999999999,-0.0006940000000001
31.400000000000038,-0.0004700000000001
31.600000000000023,-0.000985
31.80000000000001,-0.0017139999999999
32.0,-0.0027160000000001
32.19999999999999,-0.0038420000000001
32.400000000000034,-0.005649
32.60000000000002,-0.006172
32.80000000000001,-0.004966
33.0,-0.004059
33.19999999999999,-0.0011080000000001
33.400000000000034,-0.000507
33.60000000000002,-0.0015789999999999
33.80000000000001,-0.0034960000000001
34.0,-0.0044520000000001
34.19999999999999,-0.004996
34.400000000000034,-0.003576
34.60000000000002,-5.300000000008076e-05
34.80000000000001,0.0007159999999999
35.0,-0.0006190000000001
35.19999999999999,-0.004299
35.400000000000034,-0.006204
35.60000000000002,-0.0059280000000001
35.80000000000001,-0.003085
36.0,-0.0022440000000001
36.19999999999999,-0.0024939999999999
36.400000000000034,-0.004305
36.60000000000002,-0.006828
36.80000000000001,-0.0071830000000001
37.0,-0.004045
37.19999999999999,-0.000736
37.400000000000034,0.0043609999999998
37.60000000000002,0.006977
37.80000000000001,0.0067929999999998
38.0,0.0045699999999999
38.19999999999999,0.0034039999999999
38.400000000000034,0.0009879999999999
38.60000000000002,-0.001246
38.80000000000001,-0.0046000000000001
39.0,-0.0062760000000001
39.19999999999999,-0.007084
39.400000000000034,-0.0068989999999999
39.60000000000002,-0.0058759999999999
39.80000000000001,-0.006844
40.0,-0.008337
40.19999999999999,-0.009465
40.400000000000034,-0.009554
40.60000000000002,-0.008739
40.80000000000001,-0.004537
41.0,-0.0012750000000001
41.19999999999999,0.00024
41.400000000000034,-0.0012849999999999
41.60000000000002,-0.0026970000000001
41.80000000000001,-0.003973
42.0,-0.0061490000000001
42.19999999999999,-0.0077519999999999
42.400000000000034,-0.0078850000000001
42.60000000000002,-0.0083079999999999
42.80000000000001,-0.0084859999999999
43.0,-0.0086019999999999
43.19999999999999,-0.0073320000000001
43.400000000000034,-0.0055660000000001
43.60000000000002,-0.0046479999999999
43.80000000000001,-0.0042410000000001
44.0,-0.001595
44.19999999999999,-0.0020440000000001
44.400000000000034,-0.0029450000000001
44.60000000000002,-0.002944
44.80000000000001,-0.0027050000000001
45.0,-0.002207
45.19999999999999,-0.0003250000000001
45.400000000000034,0.0013349999999998
45.60000000000002,0.001757
45.80000000000001,0.0018309999999999
46.0,-8.800000000008801e-05
46.19999999999999,-0.003184
46.400000000000034,-0.0069719999999999
46.60000000000002,-0.009578
46.80000000000001,-0.0097470000000001
47.0,-0.00804
47.19999999999999,-0.00564
47.400000000000034,-0.0036530000000001
47.60000000000002,-0.0023540000000001
47.80000000000001,-0.0050720000000001
48.0,-0.007643
48.19999999999999,-0.008941
48.400000000000034,-0.0090069999999999
48.60000000000002,-0.0087430000000001
48.80000000000001,-0.0047160000000001
49.0,-0.0025620000000001
49.19999999999999,-0.002124
49.400000000000034,0.001182
49.60000000000002,0.0033479999999999
49.80000000000001,0.0022769999999998
50.0,0.0002279999999998
50.19999999999999,0.000132
50.400000000000034,-0.0021330000000001
50.60000000000002,-0.003902
50.80000000000001,-0.0052800000000001
51.0,-0.0037150000000001
51.19999999999999,-0.0033100000000001
51.400000000000034,-0.0055120000000001
51.60000000000002,-0.0066620000000001
51.80000000000001,-0.005781
52.0,-0.0048030000000001
52.19999999999999,-0.004556
52.400000000000034,-0.002369
52.60000000000002,-0.001112
52.80000000000001,-0.0016180000000001
53.0,-0.002866
53.19999999999999,-0.001972
53.400000000000034,0.0006289999999999
53.60000000000002,0.0008079999999999
53.80000000000001,-0.0006110000000001
54.0,-0.0020300000000001
54.19999999999999,-0.003514
54.400000000000034,-0.005986
54.60000000000002,-0.0059980000000001
54.80000000000001,-0.004496
55.0,-0.0048099999999999
55.19999999999999,-0.004577
55.400000000000034,-0.0041570000000001
55.60000000000002,-0.0035580000000001
55.80000000000001,-0.002877
56.0,1.199999999990098e-05
56.19999999999999,0.0025769999999998
56.400000000000034,0.0039989999999998
56.60000000000002,0.0037429999999998
56.80000000000001,0.0038439999999999
57.0,0.0034619999999998
57.19999999999999,0.0020109999999999
57.400000000000034,-0.0013389999999999
57.60000000000002,-0.0019
57.80000000000001,-0.0033670000000001
58.0,-0.004906
58.19999999999999,-0.008188
58.400000000000034,-0.0093990000000001
58.60000000000002,-0.010825
58.80000000000001,-0.010677
59.0,-0.011892
59.19999999999999,-0.011095
59.400000000000034,-0.0091149999999999
59.60000000000002,-0.007335
59.80000000000001,-0.0059010000000001
60.00000000000006,-0.00286
60.19999999999999,-0.0007970000000001
60.400000000000034,0.0004399999999999
60.599999999999966,-0.0021459999999999
60.80000000000001,-0.0069620000000001
61.00000000000006,-0.0102980000000001
61.19999999999999,-0.011554
61.400000000000034,-0.011962
61.599999999999966,-0.0101870000000001
61.80000000000001,-0.005549
62.00000000000006,-0.0032309999999999
62.19999999999999,-0.0017420000000001
62.400000000000034,-0.0002490000000001
62.599999999999966,0.00139
62.80000000000001,0.0004249999999998
63.00000000000006,-0.0010530000000001
63.19999999999999,-0.00353
63.400000000000034,-0.0072050000000001
63.599999999999966,-0.0101600000000001
63.80000000000001,-0.0111860000000001
64.00000000000006,-0.0119630000000001
64.19999999999999,-0.010742
64.40000000000003,-0.0091400000000001
64.59999999999997,-0.0082490000000001
64.80000000000001,-0.0074500000000001
65.00000000000006,-0.007994
65.19999999999999,-0.008688
65.40000000000003,-0.0084460000000001
65.59999999999997,-0.0076850000000001
65.80000000000001,-0.0081520000000001
66.00000000000006,-0.0088160000000001
66.19999999999999,-0.007627
66.40000000000003,-0.006949
66.59999999999997,-0.0062539999999999
66.80000000000001,-0.0055820000000001
67.00000000000006,-0.0030860000000001
67.19999999999999,-0.002596
67.40000000000003,-0.0027449999999999
67.59999999999997,-0.0034930000000001
67.80000000000001,-0.0035500000000001
68.00000000000006,-0.003775
68.19999999999999,-0.004345
68.40000000000003,-0.0051769999999999
68.59999999999997,-0.005727
68.80000000000001,-0.0070609999999999
69.00000000000006,-0.0083239999999999
69.19999999999999,-0.010196
69.40000000000003,-0.01153
69.59999999999997,-0.012353
69.80000000000001,-0.011487
70.00000000000006,-0.010191
70.19999999999999,-0.0103810000000001
70.40000000000003,-0.0109570000000001
70.59999999999997,-0.0105669999999999
70.80000000000001,-0.011004
71.00000000000006,-0.0104969999999999
71.19999999999999,-0.0084650000000001
71.40000000000003,-0.004833
71.59999999999997,-0.0029400000000001
71.80000000000001,-0.0025030000000001
72.00000000000006,-0.004439
72.19999999999999,-0.004653
72.40000000000003,-0.0057409999999999
72.59999999999997,-0.0070100000000001
72.80000000000001,-0.007379
73.00000000000006,-0.0074130000000001
73.19999999999999,-0.0084280000000001
73.40000000000003,-0.0100680000000001
73.59999999999997,-0.010056
73.80000000000001,-0.0085859999999999
74.00000000000006,-0.0052290000000001
74.19999999999999,-0.0022550000000001
74.40000000000003,-0.0007000000000001
74.59999999999997,0.0005599999999998
74.80000000000001,-0.000375
75.00000000000006,-0.0018759999999999
75.19999999999999,-0.004895
75.40000000000003,-0.004099
75.59999999999997,-0.0027320000000001
75.80000000000001,0.0004769999999998
76.00000000000006,0.0010099999999999
76.19999999999999,1.9999999998354667e-06
76.40000000000003,-0.002814
76.59999999999997,-0.0063090000000001
76.80000000000001,-0.0087490000000001
77.00000000000006,-0.0089989999999999
77.19999999999999,-0.0053
77.40000000000003,-0.0028020000000001
77.59999999999997,-0.000153
77.80000000000001,-0.001589
78.00000000000006,-0.001154
78.19999999999999,-0.0039660000000001
78.40000000000003,-0.004169
78.59999999999997,-0.0044430000000001
78.80000000000001,-0.0021870000000001
79.00000000000006,-0.00434
79.19999999999999,-0.0031610000000001
79.40000000000003,-0.0028799999999999
79.59999999999997,-0.0022889999999999
79.80000000000001,-0.0028130000000001
80.00000000000006,-0.0012400000000001
80.19999999999999,-0.0028810000000001
80.40000000000003,-0.0054610000000001
80.59999999999997,-0.007641
80.80000000000001,-0.009039
81.00000000000006,-0.009395
81.19999999999999,-0.007749
81.40000000000003,-0.007249
81.59999999999997,-0.0076260000000001
81.80000000000001,-0.0058250000000001
82.00000000000006,-0.003673
82.19999999999999,-0.003551
82.40000000000003,-0.0029069999999999
82.59999999999997,-0.0042889999999999
82.80000000000001,-0.0057960000000001
83.00000000000006,-0.007376
83.19999999999999,-0.0058170000000001
83.40000000000003,-0.004744
83.59999999999997,-0.0044160000000001
83.80000000000001,-0.005657
84.00000000000006,-0.0070940000000001
84.19999999999999,-0.0085870000000001
84.40000000000003,-0.009006
84.59999999999997,-0.0063470000000001
84.80000000000001,-0.004134
85.00000000000006,-0.002936
85.19999999999999,-0.003908
85.40000000000003,-0.003821
85.59999999999997,-0.0033240000000001
85.80000000000001,-0.000394
86.00000000000006,0.0014779999999998
86.19999999999999,0.0032569999999998
86.40000000000003,0.0027009999999998
86.59999999999997,0.0023889999999999
86.80000000000001,-0.0002550000000001
87.00000000000006,-0.0023220000000001
87.19999999999999,-0.0030000000000001
87.40000000000003,-0.0019170000000001
87.59999999999997,-0.003484
87.80000000000001,-0.0058330000000001
88.00000000000006,-0.0071959999999999
88.19999999999999,-0.006752
88.40000000000003,-0.0074230000000001
88.59999999999997,-0.0070000000000001
88.80000000000001,-0.0058679999999999
89.00000000000006,-0.002504
89.19999999999999,-0.003011
89.40000000000003,-0.0023440000000001
89.59999999999997,-0.001711
89.80000000000001,-0.001087
90.00000000000006,-0.005319
90.2,-0.007322
90.40000000000003,-0.0081760000000001
90.59999999999997,-0.008386
90.8,-0.008982
91.00000000000006,-0.0084030000000001
91.2,-0.0071780000000001
91.40000000000003,-0.0063699999999999
91.59999999999997,-0.0065870000000001
91.8,-0.0057530000000001
92.00000000000006,-0.0019200000000001
92.2,0.002027
92.40000000000003,0.0038509999999998
92.59999999999997,0.0047949999999998
92.8,0.0049069999999999
93.00000000000006,0.0021319999999998
93.2,-0.0014979999999999
93.40000000000003,-0.003554
93.59999999999997,-0.003354
93.8,-0.0033040000000001
94.00000000000006,-0.0041030000000001
94.2,-0.005767
94.40000000000003,-0.0076800000000001
94.59999999999997,-0.007883
94.8,-0.0083170000000001
95.00000000000006,-0.0074670000000001
95.2,-0.0059630000000001
95.40000000000003,-0.003665
95.59999999999997,-0.0039070000000001
95.8,-0.004126
96.00000000000006,-0.004272
96.2,-0.0058120000000001
96.40000000000003,-0.0091970000000001
96.59999999999997,-0.0120140000000001
96.8,-0.012961
97.00000000000006,-0.013263
97.2,-0.0115009999999999
97.40000000000003,-0.010488
97.59999999999997,-0.010707
97.8,-0.012175
98.00000000000006,-0.0126700000000001
98.2,-0.0127970000000001
98.40000000000003,-0.0107430000000001
98.59999999999997,-0.007986
98.8,-0.0035519999999999
99.00000000000006,-0.0015310000000001
99.2,-0.001908
99.40000000000003,-0.0038390000000001
99.59999999999997,-0.0060379999999999
99.8,-0.0099900000000001
100.00000000000006,-0.0132320000000001
100.2,-0.0141379999999999
100.40000000000003,-0.0138790000000001
100.59999999999997,-0.01242
100.8,-0.010216
101.00000000000006,-0.008061
101.2,-0.0085220000000001
101.40000000000003,-0.011122
101.59999999999997,-0.013694
101.8,-0.015033
102.00000000000006,-0.014369
102.2,-0.011468
102.40000000000003,-0.0082200000000001
102.59999999999997,-0.0079440000000001
102.8,-0.009193
103.00000000000006,-0.0101200000000001
103.2,-0.010858
103.40000000000003,-0.0093610000000001
103.59999999999997,-0.0054310000000001
103.8,-0.00215
104.00000000000006,7.099999999993223e-05
104.2,0.001139
104.40000000000003,-0.000374
104.59999999999997,-0.001627
104.8,-0.001354
105.00000000000006,-0.000358
105.2,-0.0008179999999999
105.40000000000003,-0.00093
105.59999999999997,-0.0013009999999999
105.8,-0.00384
106.00000000000006,-0.0067670000000001
106.2,-0.0074590000000001
106.40000000000003,-0.0065490000000001
106.59999999999997,-0.0059150000000001
106.8,-0.0040600000000001
107.00000000000006,-0.003576
107.2,-0.0023090000000001
107.40000000000003,-0.0023969999999999
107.59999999999997,-0.003964
107.8,-0.006348
108.00000000000006,-0.005268
108.2,-0.007133
108.40000000000003,-0.007641
108.59999999999997,-0.007775
108.8,-0.0060960000000001
109.00000000000006,-0.007157
109.2,-0.0064460000000001
109.40000000000003,-0.0057610000000001
109.59999999999997,-0.002812
109.8,-0.0019340000000001
110.00000000000006,-0.0018880000000001
110.2,-0.0038610000000001
110.40000000000003,-0.0047590000000001
110.59999999999997,-0.0060930000000001
110.8,-0.005684
111.00000000000006,-0.00539
111.2,-0.0027890000000001
111.40000000000003,-0.0029510000000001
111.59999999999997,-0.0036329999999999
111.8,-0.0050080000000001
112.00000000000006,-0.0048449999999999
112.2,-0.006081
112.40000000000003,-0.0031590000000001
112.59999999999997,-0.0013670000000001
112.8,-0.0022570000000001
113.00000000000006,-0.003946
113.2,-0.0041850000000001
113.40000000000003,-0.007355
113.59999999999997,-0.010877
113.8,-0.0104540000000001
114.00000000000006,-0.0094530000000001
114.2,-0.007902
114.40000000000003,-0.007087
114.59999999999997,-0.003438
114.8,-0.002024
115.00000000000006,-0.0024399999999999
115.2,-0.003919
115.40000000000003,-0.0040520000000001
115.59999999999997,-0.0060420000000001
115.8,-0.0059379999999999
116.00000000000006,-0.0037930000000001
116.2,-0.002974
116.40000000000003,-0.0020840000000001
116.59999999999997,-0.001446
116.8,-0.0036560000000001
117.00000000000006,-0.0061930000000001
117.2,-0.007009
117.40000000000003,-0.0072720000000001
117.59999999999997,-0.0069240000000001
117.8,-0.0049860000000001
118.00000000000006,-0.003614
118.2,-0.0029180000000001
118.40000000000003,-0.0037800000000001
118.59999999999997,-0.0049400000000001
118.8,-0.005071
119.00000000000006,-0.0052770000000001
119.2,-0.0055070000000001
119.40000000000003,-0.0060220000000001
119.59999999999997,-0.0048270000000001
119.8,-0.0050000000000001
120.00000000000006,-0.0044870000000001
120.2,-0.003487
120.40000000000003,-0.0006270000000001
120.59999999999997,-0.0003950000000001
120.8,0.0015129999999998
121.00000000000006,-2.2000000000188532e-05
121.2,-0.001889
121.40000000000003,-0.0054480000000001
121.59999999999997,-0.005549
121.8,-0.0066570000000001
122.00000000000006,-0.006372
122.2,-0.005746
122.40000000000003,-0.0038850000000001
122.59999999999997,-0.0059470000000001
122.8,-0.0090879999999999
123.00000000000006,-0.012656
123.2,-0.013552
123.40000000000003,-0.0134450000000001
123.59999999999997,-0.0113940000000001
123.8,-0.0102630000000001
124.00000000000006,-0.008555
124.2,-0.008828
124.40000000000003,-0.009776
124.59999999999997,-0.011694
124.8,-0.01211
125.00000000000006,-0.0099600000000001
125.2,-0.0092070000000001
125.40000000000003,-0.009587
125.59999999999997,-0.0091769999999999
125.8,-0.0103440000000001
126.00000000000006,-0.014129
126.2,-0.017136
126.40000000000003,-0.0176690000000001
126.59999999999997,-0.017792
126.8,-0.017973
127.00000000000006,-0.0162269999999999
127.2,-0.014475
127.40000000000003,-0.0123660000000001
127.59999999999997,-0.010593
127.8,-0.006963
128.00000000000006,-0.003514
128.2,-0.0019880000000001
128.40000000000003,-0.003268
128.59999999999997,-0.004861
128.8,-0.004604
129.00000000000006,-0.0042250000000001
129.2,-0.00255
129.40000000000003,-0.0003820000000001
129.59999999999997,0.0024079999999999
129.8,0.0025979999999998
130.00000000000006,0.0028549999999998
130.2,0.0024309999999998
130.40000000000003,0.002043
130.59999999999997,-0.0002380000000001
130.8,-0.002936
131.00000000000006,-0.00503
131.2,-0.0052130000000001
131.40000000000003,-0.004744
131.59999999999997,-0.00259
131.8,-0.0003820000000001
132.00000000000006,0.0006139999999998
132.2,0.0002039999999998
132.40000000000003,-0.000903
132.59999999999997,-0.003449
132.8,-0.0050160000000001
133.00000000000006,-0.006421
133.2,-0.0075290000000001
133.40000000000003,-0.0079790000000001
133.59999999999997,-0.0065060000000001
133.8,-0.005284
134.00000000000006,-0.0045669999999999
134.2,-0.0036150000000001
134.40000000000003,-0.0013880000000001
134.59999999999997,-0.001317
134.8,-0.0020280000000001
135.00000000000006,-0.0024270000000001
135.2,-0.0026650000000001
135.40000000000003,-0.0045810000000001
135.59999999999997,-0.007111
135.8,-0.0083490000000001
136.00000000000006,-0.0099470000000001
136.2,-0.0114610000000001
136.40000000000003,-0.0126780000000001
136.59999999999997,-0.0116260000000001
136.8,-0.0118450000000001
137.00000000000006,-0.011945
137.2,-0.0110100000000001
137.40000000000003,-0.0100379999999999
137.59999999999997,-0.0079200000000001
137.8,-0.004364
138.00000000000006,-0.001362
138.2,-0.001878
138.40000000000003,-0.002917
138.59999999999997,-0.0062460000000001
138.8,-0.009273
139.00000000000006,-0.011022
139.2,-0.0099530000000001
139.40000000000003,-0.009997
139.59999999999997,-0.0089179999999999
139.8,-0.0094770000000001
140.00000000000006,-0.0100600000000001
140.2,-0.010898
140.40000000000003,-0.009532
140.59999999999997,-0.010607
140.8,-0.0108210000000001
141.00000000000006,-0.0106209999999999
141.2,-0.008183
141.40000000000003,-0.007648
141.59999999999997,-0.0065510000000001
141.8,-0.005408
142.00000000000006,-0.005505
142.2,-0.009055
142.40000000000003,-0.0123060000000001
142.59999999999997,-0.0133670000000001
142.8,-0.0125890000000001
143.00000000000006,-0.0135120000000001
143.2,-0.013908
143.40000000000003,-0.0141250000000001
143.59999999999997,-0.013587
143.8,-0.014148
144.00000000000006,-0.0137200000000001
144.2,-0.0112309999999999
144.40000000000003,-0.0106240000000001
144.59999999999997,-0.0106669999999999
144.8,-0.01109
145.00000000000006,-0.011498
145.2,-0.011751
145.40000000000003,-0.009503
145.59999999999997,-0.0071309999999999
145.8,-0.006672
146.00000000000006,-0.0048020000000001
146.2,-0.0060109999999999
146.40000000000003,-0.00695
146.59999999999997,-0.0090670000000001
146.8,-0.0095549999999999
147.00000000000006,-0.011184
147.2,-0.0111400000000001
147.40000000000003,-0.0111160000000001
147.59999999999997,-0.0112849999999999
147.8,-0.0119930000000001
148.00000000000006,-0.0114420000000001
148.2,-0.010199
148.40000000000003,-0.012887
148.59999999999997,-0.0145049999999999
148.8,-0.0161600000000001
149.00000000000006,-0.0189050000000001
149.2,-0.0210650000000001
149.40000000000003,-0.0188860000000001
149.59999999999997,-0.0164270000000001
149.8,-0.0152780000000001
150.00000000000006,-0.0143200000000001
150.2,-0.0164810000000001
150.40000000000003,-0.0182680000000001
150.59999999999997,-0.018262
150.8,-0.01411
151.00000000000006,-0.0097090000000001
151.2,-0.006051
151.40000000000003,-0.0054750000000001
151.59999999999997,-0.0083220000000001
151.8,-0.0150190000000001
152.00000000000006,-0.021913
152.2,-0.0234469999999999
152.40000000000003,-0.0209430000000001
152.59999999999997,-0.016853
152.8,-0.011414
153.00000000000006,-0.0062920000000001
153.2,-0.005778
153.40000000000003,-0.006693
153.59999999999997,-0.007549
153.8,-0.0080839999999999
154.00000000000006,-0.0075210000000001
154.2,-0.0049100000000001
154.40000000000003,-0.0026050000000001
154.59999999999997,-0.001406
154.8,-0.0009460000000001
155.00000000000006,-0.0018820000000001
155.2,-0.0035500000000001
155.40000000000003,-0.0055480000000001
155.59999999999997,-0.0091530000000001
155.8,-0.011382
156.00000000000006,-0.011846
156.2,-0.0113020000000001
156.40000000000003,-0.0105700000000001
156.59999999999997,-0.0073690000000001
156.8,-0.0059060000000001
157.00000000000006,-0.0044080000000001
157.2,-0.0050460000000001
157.40000000000003,-0.0048030000000001
157.59999999999997,-0.0053400000000001
157.8,-0.0051510000000001
158.00000000000006,-0.005398
158.2,-0.004167
158.40000000000003,-0.006196
158.59999999999997,-0.007554
158.8,-0.0070620000000001
159.00000000000006,-0.007171
159.2,-0.0068400000000001
159.40000000000003,-0.0067400000000001
159.59999999999997,-0.006731
159.8,-0.0097530000000001
160.00000000000006,-0.0124760000000001
160.2,-0.015768
160.40000000000003,-0.0149890000000001
160.59999999999997,-0.013746
160.8,-0.010099
161.00000000000006,-0.008539
161.2,-0.007397
161.40000000000003,-0.0076169999999999
161.59999999999997,-0.0084980000000001
161.8,-0.0092890000000001
162.00000000000006,-0.0091670000000001
162.2,-0.007902
162.40000000000003,-0.0088160000000001
162.59999999999997,-0.008853
162.8,-0.0090959999999999
163.00000000000006,-0.0077740000000001
163.2,-0.0087289999999999
163.40000000000003,-0.007843
163.59999999999997,-0.0069430000000001
163.8,-0.006159
164.00000000000006,-0.0056
164.2,-0.0057100000000001
164.40000000000003,-0.0061189999999999
164.59999999999997,-0.0066559999999999
164.8,-0.007794
165.00000000000006,-0.009416
165.2,-0.006917
165.40000000000003,-0.004982
165.59999999999997,-0.003808
165.8,-0.0043220000000001
166.00000000000006,-0.0045980000000001
166.2,-0.007125
166.40000000000003,-0.0084490000000001
166.59999999999997,-0.010685
166.8,-0.0116470000000001
167.00000000000006,-0.0131990000000001
167.2,-0.013068
167.40000000000003,-0.0121310000000001
167.59999999999997,-0.0086749999999999
167.8,-0.007217
168.00000000000006,-0.0056770000000001
168.2,-0.006072
168.40000000000003,-0.0066590000000001
168.59999999999997,-0.0097040000000001
168.8,-0.010712
169.00000000000006,-0.0106050000000001
169.2,-0.0107110000000001
169.40000000000003,-0.012566
169.59999999999997,-0.0135230000000001
169.8,-0.011783
170.00000000000006,-0.0102410000000001
170.2,-0.009155
170.40000000000003,-0.0082120000000001
170.59999999999997,-0.007028
170.8,-0.008996
171.00000000000006,-0.011246
171.2,-0.0125110000000001
171.40000000000003,-0.0106650000000001
171.59999999999997,-0.009335
171.8,-0.0061710000000001
172.00000000000006,-0.0040999999999999
172.2,-0.002461
172.40000000000003,-0.004421
172.59999999999997,-0.006334
172.8,-0.0081520000000001
173.00000000000006,-0.008987
173.2,-0.0085350000000001
173.40000000000003,-0.007279
173.59999999999997,-0.0070700000000001
173.8,-0.008593
174.00000000000006,-0.007344
174.2,-0.005702
174.40000000000003,-0.003964
174.59999999999997,-0.0039489999999999
174.8,-0.004124
175.00000000000006,-0.007441
175.2,-0.0107760000000001
175.40000000000003,-0.0127460000000001
175.59999999999997,-0.013246
175.8,-0.0131480000000001
176.00000000000006,-0.012715
176.2,-0.013322
176.40000000000003,-0.0151700000000001
176.59999999999997,-0.0171700000000001
176.8,-0.0179280000000001
177.00000000000006,-0.0172590000000001
177.2,-0.0158630000000001
177.40000000000003,-0.016647
177.59999999999997,-0.0157150000000001
177.8,-0.0126920000000001
178.00000000000006,-0.0101630000000001
178.2,-0.006863
178.40000000000003,-0.001964
178.59999999999997,0.0020299999999999
178.8,0.0006119999999998
179.00000000000006,-0.0016980000000001
179.2,-0.004968
179.40000000000003,-0.008115
179.59999999999997,-0.010815
179.8,-0.0131940000000001
180.00000000000006,-0.0142030000000001
180.2,-0.0154260000000001
180.40000000000003,-0.015822
180.6,-0.0169529999999999
180.8,-0.015684
181.00000000000009,-0.013921
181.2,-0.010904
181.40000000000003,-0.0093770000000001
181.6,-0.008229
181.8,-0.0081520000000001
182.00000000000009,-0.0076709999999999
182.2,-0.0100250000000001
182.40000000000003,-0.0103110000000001
182.6,-0.009802
182.8,-0.0099550000000001
183.00000000000009,-0.0117059999999999
183.2,-0.0123950000000001
183.40000000000003,-0.0138139999999999
183.6,-0.0137599999999999
183.8,-0.010895
184.00000000000009,-0.0085859999999999
184.2,-0.006383
184.40000000000003,-0.0040200000000001
184.6,-0.002801
184.8,-0.0034020000000001
185.00000000000009,-0.0037280000000001
185.2,-0.003244
185.40000000000003,-0.004685
185.6,-0.0076020000000001
185.8,-0.0089750000000001
186.00000000000009,-0.0094469999999999
186.2,-0.0102650000000001
186.40000000000003,-0.0102300000000001
186.6,-0.010164
186.8,-0.01068
187.00000000000009,-0.0130910000000001
187.2,-0.0139610000000001
187.40000000000003,-0.015157
187.6,-0.01424
187.8,-0.013921
188.00000000000009,-0.010278
188.2,-0.0081729999999999
188.40000000000003,-0.0058200000000001
188.6,-0.00455
188.8,-0.0028840000000001
189.00000000000009,-0.005338
189.2,-0.0104920000000001
189.40000000000003,-0.013827
189.6,-0.014318
189.8,-0.013638
190.00000000000009,-0.0121269999999999
190.2,-0.0094420000000001
190.40000000000003,-0.008831
190.6,-0.009203
190.8,-0.0098740000000001
191.00000000000009,-0.0101360000000001
191.2,-0.0096960000000001
191.40000000000003,-0.0093199999999999
191.6,-0.0102930000000001
191.8,-0.0122269999999999
192.00000000000009,-0.0128780000000001
192.2,-0.0149760000000001
192.40000000000003,-0.0158610000000001
192.6,-0.015924
192.8,-0.0150720000000001
193.00000000000009,-0.013857
193.2,-0.0113020000000001
193.40000000000003,-0.009257
193.6,-0.009084
193.8,-0.0104280000000001
194.00000000000009,-0.012812
194.2,-0.0137260000000001
194.40000000000003,-0.01502
194.6,-0.012968
194.8,-0.012887
195.00000000000009,-0.012704
195.2,-0.0122189999999999
195.40000000000003,-0.011589
195.6,-0.013395
195.8,-0.0145900000000001
196.00000000000009,-0.0148449999999999
196.2,-0.014304
196.40000000000003,-0.0122079999999999
196.6,-0.0092080000000001
196.8,-0.0053800000000001
197.00000000000009,-0.004207
197.2,-0.0060520000000001
197.40000000000003,-0.0071430000000001
197.6,-0.010107
197.8,-0.0128369999999999
198.00000000000009,-0.012718
198.2,-0.0106680000000001
198.40000000000003,-0.0108290000000002
198.6,-0.0114020000000001
198.8,-0.010615
199.00000000000009,-0.0105360000000001
199.2,-0.0111450000000001
199.40000000000003,-0.0127510000000001
199.6,-0.0131700000000001
199.8,-0.015551
200.00000000000009,-0.0166700000000001
200.2,-0.0162889999999999
200.40000000000003,-0.014278
200.6,-0.012275
200.8,-0.010618
201.00000000000009,-0.0102889999999999
201.2,-0.0115530000000001
201.40000000000003,-0.012199
201.6,-0.0113020000000001
201.8,-0.009238
202.00000000000009,-0.00926
202.2,-0.009687
202.40000000000003,-0.0112860000000001
202.6,-0.012699
202.8,-0.014259
203.00000000000009,-0.0133210000000001
203.2,-0.011921
203.40000000000003,-0.01001
203.6,-0.0111430000000001
203.8,-0.012763
204.00000000000009,-0.0149750000000001
204.2,-0.01458
204.40000000000003,-0.0143680000000001
204.6,-0.0123619999999999
204.8,-0.0099740000000001
205.00000000000009,-0.009999
205.2,-0.012418
205.40000000000003,-0.01296
205.6,-0.0117120000000001
205.8,-0.0119770000000001
206.00000000000009,-0.0110450000000001
206.2,-0.010142
206.40000000000003,-0.0106110000000001
206.6,-0.0137910000000001
206.8,-0.0143110000000001
207.00000000000009,-0.0119880000000001
207.2,-0.0106510000000001
207.40000000000003,-0.0121230000000001
207.6,-0.0124969999999999
207.8,-0.0144600000000001
208.00000000000009,-0.0172499999999999
208.2,-0.0184200000000001
208.40000000000003,-0.016426
208.6,-0.015497
208.8,-0.013824
209.00000000000009,-0.012612
209.2,-0.011055
209.40000000000003,-0.0111260000000001
209.6,-0.0097470000000001
209.8,-0.00946
210.00000000000009,-0.0102950000000001
210.2,-0.0128670000000001
210.40000000000003,-0.0155549999999999
210.6,-0.0176940000000001
210.8,-0.017765
211.00000000000009,-0.015816
211.2,-0.014199
211.40000000000003,-0.0130400000000001
211.6,-0.0137340000000001
211.8,-0.0161470000000001
212.00000000000009,-0.019328
212.2,-0.020804
212.40000000000003,-0.0197720000000001
212.6,-0.01861
212.8,-0.0151400000000001
213.00000000000009,-0.0128620000000001
213.2,-0.012288
213.40000000000003,-0.0153800000000001
213.6,-0.017643
213.8,-0.019325
214.00000000000009,-0.018591
214.2,-0.017079
214.40000000000003,-0.013228
214.6,-0.0095580000000001
214.8,-0.008839
215.00000000000009,-0.009252
215.2,-0.010693
215.40000000000003,-0.009862
215.6,-0.0102760000000001
215.8,-0.008779
216.00000000000009,-0.00886
216.2,-0.00686
216.40000000000003,-0.0093850000000001
216.6,-0.009409
216.8,-0.009527
217.00000000000009,-0.0088020000000001
217.2,-0.008016
217.40000000000003,-0.003479
217.6,-0.0010080000000001
217.8,-0.000251
218.00000000000009,-0.001168
218.2,-0.003627
218.40000000000003,-0.0067510000000001
218.6,-0.0085730000000001
218.8,-0.0106220000000001
219.00000000000009,-0.011047
219.2,-0.010556
219.40000000000003,-0.0080420000000001
219.6,-0.007276
219.8,-0.005932
220.00000000000009,-0.006895
220.2,-0.006529
220.40000000000003,-0.0093750000000001
220.6,-0.0115709999999999
220.8,-0.014491
221.00000000000009,-0.013686
221.2,-0.013714
221.40000000000003,-0.012466
221.6,-0.012277
221.8,-0.011714
222.00000000000009,-0.0133610000000001
222.2,-0.0153659999999999
222.40000000000003,-0.0172400000000001
222.6,-0.018658
222.8,-0.0206250000000001
223.00000000000009,-0.021401
223.2,-0.022634
223.40000000000003,-0.022037
223.6,-0.0196709999999999
223.8,-0.017214
224.00000000000009,-0.01601
224.2,-0.013938
224.40000000000003,-0.0147270000000001
224.6,-0.0146380000000001
224.8,-0.0135150000000001
225.00000000000009,-0.011211
225.2,-0.010966
225.40000000000003,-0.010388
225.6,-0.0111350000000001
225.8,-0.0115370000000001
226.00000000000009,-0.011613
226.2,-0.0094130000000001
226.40000000000003,-0.0089670000000001
226.6,-0.009354
226.8,-0.0102619999999999
227.00000000000009,-0.011641
227.2,-0.014045
227.40000000000003,-0.014882
227.6,-0.014923
227.8,-0.014051
228.00000000000009,-0.0134420000000001
228.2,-0.0148460000000001
228.40000000000003,-0.017141
228.6,-0.0219990000000001
228.8,-0.0245380000000001
229.00000000000009,-0.0260489999999999
229.2,-0.023927
229.40000000000003,-0.0217040000000001
229.6,-0.0163980000000001
229.8,-0.011924
230.00000000000009,-0.009158
230.2,-0.0074199999999999
230.40000000000003,-0.0071700000000001
230.6,-0.0062570000000001
230.8,-0.0071240000000001
231.00000000000009,-0.0072229999999999
231.2,-0.008372
231.40000000000003,-0.0070240000000001
231.6,-0.007495
231.8,-0.0074420000000001
232.00000000000009,-0.0081060000000001
232.2,-0.00977
232.40000000000003,-0.0101600000000001
232.6,-0.008671
232.8,-0.008569
233.00000000000009,-0.0093150000000001
233.2,-0.0092690000000001
233.40000000000003,-0.011643
233.6,-0.0161950000000001
233.8,-0.0196770000000001
234.00000000000009,-0.01953
234.2,-0.016615
234.40000000000003,-0.012501
234.6,-0.0071970000000001
234.8,-0.0029920000000001
235.00000000000009,-0.0013850000000001
235.2,-0.0041650000000001
235.40000000000003,-0.0059900000000001
235.6,-0.008418
235.8,-0.0100280000000001
236.00000000000009,-0.011522
236.2,-0.009138
236.40000000000003,-0.0076470000000001
236.6,-0.0059600000000001
236.8,-0.0056580000000001
237.00000000000009,-0.0064900000000001
237.2,-0.0098280000000001
237.40000000000003,-0.011975
237.6,-0.0138390000000001
237.8,-0.015711
238.00000000000009,-0.0179900000000001
238.2,-0.017417
238.40000000000003,-0.017427
238.6,-0.01844
238.8,-0.018699
239.00000000000009,-0.017347
239.2,-0.0156530000000001
239.40000000000003,-0.014248
239.6,-0.0124570000000001
239.8,-0.01184
240.00000000000009,-0.0115880000000001
240.2,-0.013719
240.40000000000003,-0.0157040000000001
240.6,-0.017371
240.8,-0.0178040000000001
241.00000000000009,-0.019176
241.2,-0.0198679999999999
241.40000000000003,-0.0208240000000001
241.6,-0.021498
241.8,-0.020269
242.00000000000009,-0.017687
242.2,-0.0145239999999999
242.40000000000003,-0.0136720000000001
242.6,-0.0126330000000001
242.8,-0.0131510000000001
243.00000000000009,-0.0130510000000001
243.2,-0.011111
243.40000000000003,-0.0078500000000001
243.6,-0.0046680000000001
243.8,-0.0027220000000001
244.00000000000009,-0.0014180000000001
244.2,-0.00522
244.40000000000003,-0.0077820000000001
244.6,-0.0096370000000001
244.8,-0.008372
245.00000000000009,-0.008726
245.2,-0.007308
245.40000000000003,-0.0084090000000001
245.6,-0.0113100000000001
245.8,-0.016472
246.00000000000009,-0.017603
246.2,-0.019787
246.40000000000003,-0.020134
246.6,-0.0198390000000001
246.8,-0.0171510000000001
247.00000000000009,-0.0156770000000001
247.2,-0.013722
247.40000000000003,-0.0134659999999999
247.6,-0.0142280000000001
247.8,-0.016745
248.00000000000009,-0.0203550000000001
248.2,-0.023546
248.40000000000003,-0.0237210000000001
248.6,-0.0214160000000001
248.8,-0.017741
249.00000000000009,-0.014464
249.2,-0.01119
249.40000000000003,-0.009368
249.6,-0.0095390000000001
249.8,-0.0104969999999999
250.00000000000009,-0.0116500000000001
250.2,-0.011506
250.40000000000003,-0.009767
250.6,-0.007929
250.8,-0.0099120000000001
251.00000000000009,-0.0089609999999999
251.2,-0.008839
251.40000000000003,-0.009724
251.6,-0.0109179999999999
251.8,-0.010423
252.00000000000009,-0.011932
252.2,-0.0149130000000001
252.40000000000003,-0.017273
252.6,-0.018405
252.8,-0.016159
253.00000000000009,-0.013104
253.2,-0.0096960000000001
253.40000000000003,-0.009317
253.6,-0.0100220000000001
253.8,-0.012223
254.00000000000009,-0.0142900000000001
254.2,-0.016574
254.40000000000003,-0.016542
254.6,-0.015497
254.8,-0.013525
255.00000000000009,-0.015792
255.2,-0.017063
255.40000000000003,-0.018002
255.6,-0.0162170000000001
255.8,-0.0182040000000001
256.00000000000006,-0.0172450000000001
256.2,-0.015913
256.40000000000003,-0.0142189999999999
256.6,-0.0169560000000001
256.8,-0.016815
257.00000000000006,-0.018181
257.2,-0.0171100000000001
257.40000000000003,-0.01749
257.6,-0.0150320000000001
257.8,-0.014102
258.00000000000006,-0.011298
258.2,-0.011883
258.40000000000003,-0.0118610000000001
258.6,-0.0121109999999999
258.8,-0.0135450000000001
259.00000000000006,-0.013222
259.2,-0.01197
259.40000000000003,-0.009983
259.6,-0.011103
259.8,-0.008485
260.00000000000006,-0.008151
260.2,-0.0073320000000001
260.40000000000003,-0.007775
260.6,-0.008704
260.8,-0.011657
261.00000000000006,-0.015684
261.2,-0.0187250000000001
261.40000000000003,-0.0217560000000001
261.6,-0.022801
261.8,-0.022548
262.00000000000006,-0.021668
262.2,-0.020845
262.40000000000003,-0.0189000000000001
262.6,-0.017193
262.8,-0.0168460000000001
263.00000000000006,-0.0162090000000001
263.2,-0.015676
263.40000000000003,-0.0161649999999999
263.6,-0.0149570000000001
263.8,-0.013824
264.00000000000006,-0.013436
264.2,-0.01356
264.40000000000003,-0.0125319999999999
264.6,-0.011185
264.8,-0.009438
265.00000000000006,-0.0060729999999999
265.2,-0.005711
265.40000000000003,-0.007376
265.6,-0.0096340000000001
265.8,-0.0130990000000001
266.00000000000006,-0.017999
266.2,-0.0206000000000001
266.40000000000003,-0.019395
266.6,-0.017517
266.8,-0.014893
267.00000000000006,-0.012288
267.2,-0.011157
267.40000000000003,-0.010412
267.6,-0.0124239999999999
267.8,-0.015195
268.00000000000006,-0.0176290000000001
268.2,-0.017265
268.40000000000003,-0.0178090000000001
268.6,-0.0170620000000001
268.8,-0.014917
269.00000000000006,-0.0131769999999999
269.2,-0.0134510000000001
269.40000000000003,-0.015951
269.6,-0.0173960000000001
269.8,-0.0197290000000001
270.00000000000006,-0.0211130000000001
270.2,-0.0202580000000001
270.40000000000003,-0.0175020000000001
270.6,-0.015328
270.8,-0.0132080000000001
271.00000000000006,-0.009932
271.2,-0.007427
271.40000000000003,-0.0065859999999999
271.6,-0.0071020000000001
271.8,-0.007757
272.00000000000006,-0.008728
272.2,-0.010248
272.40000000000003,-0.0111499999999999
272.6,-0.0123570000000001
272.8,-0.01343
273.00000000000006,-0.013368
273.2,-0.012888
273.40000000000003,-0.0113739999999999
273.6,-0.0094180000000001
273.8,-0.0084460000000001
274.00000000000006,-0.010466
274.2,-0.014755
274.40000000000003,-0.0187209999999999
274.6,-0.022963
274.8,-0.024917
275.00000000000006,-0.0241150000000001
275.2,-0.0206780000000001
275.40000000000003,-0.0185460000000001
275.6,-0.016737
275.8,-0.015525
276.00000000000006,-0.0172769999999999
276.2,-0.019584
276.40000000000003,-0.0206110000000001
276.6,-0.0189510000000001
276.8,-0.0171110000000001
277.00000000000006,-0.014226
277.2,-0.0130190000000001
277.40000000000003,-0.0127680000000001
277.6,-0.0127840000000001
277.8,-0.011098
278.00000000000006,-0.0093670000000001
278.2,-0.0075930000000001
278.40000000000003,-0.0080839999999999
278.6,-0.0086780000000001
278.8,-0.0102060000000001
279.00000000000006,-0.0099880000000001
279.2,-0.0086289999999999
279.40000000000003,-0.005201
279.6,-0.002839
279.8,-0.0018139999999999
280.00000000000006,-0.00354
280.2,-0.0068400000000001
280.40000000000003,-0.010064
280.6,-0.0123870000000001
280.8,-0.013514
281.00000000000006,-0.0151210000000001
281.2,-0.0143950000000001
281.40000000000003,-0.014059
281.6,-0.0146490000000001
281.8,-0.016251
282.00000000000006,-0.014299
282.2,-0.013808
282.40000000000003,-0.0125950000000001
282.6,-0.0102470000000001
282.8,-0.007857
283.00000000000006,-0.007983
283.2,-0.0072940000000001
283.40000000000003,-0.0091640000000001
283.6,-0.0130670000000001
283.8,-0.017182
284.00000000000006,-0.0211750000000001
284.2,-0.0253940000000001
284.40000000000003,-0.0260150000000001
284.6,-0.0246160000000001
284.8,-0.022688
285.00000000000006,-0.020585
285.2,-0.0174469999999999
285.40000000000003,-0.0168829999999999
285.6,-0.0182110000000002
285.8,-0.0174659999999999
286.00000000000006,-0.013975
286.2,-0.013222
286.40000000000003,-0.013597
286.6,-0.01441
286.8,-0.0163820000000001
287.00000000000006,-0.019457
287.2,-0.020488
287.40000000000003,-0.0213309999999999
287.6,-0.020073
287.8,-0.020089
288.00000000000006,-0.0181310000000001
288.2,-0.017865
288.40000000000003,-0.0154279999999999
288.6,-0.0129210000000001
288.8,-0.010019
289.00000000000006,-0.010531
289.2,-0.0106220000000001
289.40000000000003,-0.0111290000000001
289.6,-0.013849
289.8,-0.0154320000000001
290.00000000000006,-0.0154050000000001
290.2,-0.015516
290.40000000000003,-0.0154279999999999
290.6,-0.01448
290.8,-0.014437
291.00000000000006,-0.0147590000000001
291.2,-0.0121310000000001
291.40000000000003,-0.011419
291.6,-0.011028
291.8,-0.010504
292.00000000000006,-0.0102349999999999
292.2,-0.0122520000000001
292.40000000000003,-0.0121870000000001
292.6,-0.0111320000000001
292.8,-0.011174
293.00000000000006,-0.013217
293.2,-0.01492
293.40000000000003,-0.016952
293.6,-0.018291
293.8,-0.0185090000000001
294.00000000000006,-0.0184760000000001
294.2,-0.018205
294.40000000000003,-0.0185820000000001
294.6,-0.018019
294.8,-0.016887
295.00000000000006,-0.0142570000000001
295.2,-0.0119420000000001
295.40000000000003,-0.0112
295.6,-0.0110910000000001
295.8,-0.01184
296.00000000000006,-0.012361
296.2,-0.013646
296.40000000000003,-0.012799
296.6,-0.0124699999999999
296.8,-0.009211
297.00000000000006,-0.0062820000000001
297.2,-0.00299
297.40000000000003,-0.0013780000000001
297.6,-0.0012780000000001
297.8,-0.005157
297.99999999999994,0.000223
298.1999999999999,0.0023949999999999
298.3999999999999,0.0026999999999999
298.6,0.004172
298.7999999999999,0.0034309999999999
298.99999999999994,0.0025749999999999
299.1999999999999,0.000226
299.3999999999999,-0.000941
299.6,-0.0017019999999998
299.7999999999999,-0.001757
299.99999999999994,-0.0026809999999999
300.1999999999999,-0.0021519999999999
300.3999999999999,-0.001978
300.6,-0.001508
300.7999999999999,-0.0042159999999999
300.99999999999994,-0.00617
301.1999999999999,-0.0065169999999998
301.3999999999999,-0.005362
301.6,-0.0053609999999999
301.7999999999999,-0.003619
301.99999999999994,-0.0039139999999999
302.1999999999999,-0.005476
302.3999999999999,-0.0079689999999998
302.6,-0.0075469999999999
302.7999999999999,-0.006728
302.99999999999994,-0.007873
303.1999999999999,-0.0092449999999999
303.3999999999999,-0.007975
303.6,-0.005999
303.7999999999999,-0.0035819999999999
303.99999999999994,0.00154
304.1999999999999,0.004807
304.3999999999999,0.004814
304.6,0.0040899999999999
304.7999999999999,0.0012940000000001
304.99999999999994,-0.003058
305.1999999999999,-0.0060999999999999
305.3999999999999,-0.008253
305.6,-0.0127429999999999
305.7999999999999,-0.0151129999999999
305.99999999999994,-0.0157279999999999
306.1999999999999,-0.013808
306.3999999999999,-0.012548
306.6,-0.010059
306.7999999999999,-0.007846
306.99999999999994,-0.006367
307.1999999999999,-0.005716
307.3999999999999,-0.003516
307.6,-0.0019629999999999
307.7999999999999,-0.0007109999999999
307.99999999999994,0.000234
308.1999999999999,-0.0009239999999999
308.3999999999999,-0.0030259999999999
308.6,-0.0064729999999999
308.7999999999999,-0.0093209999999999
308.99999999999994,-0.011762
309.1999999999999,-0.010477
309.3999999999999,-0.0077909999999998
309.6,-0.0028029999999998
309.7999999999999,0.0007509999999999
309.99999999999994,0.0042090000000001
310.1999999999999,0.004493
310.3999999999999,0.003781
310.6,0.003746
310.7999999999999,0.0039420000000001
310.99999999999994,0.0032879999999999
311.1999999999999,0.0021029999999999
311.3999999999999,-0.0007859999999999
311.6,-0.005811
311.7999999999999,-0.007986
311.99999999999994,-0.0092039999999999
312.1999999999999,-0.006148
312.3999999999999,-0.0023429999999999
312.6,0.0037769999999999
312.7999999999999,0.005913
312.99999999999994,0.0054389999999999
313.1999999999999,0.001246
313.3999999999999,-0.002977
313.6,-0.0069489999999998
313.7999999999999,-0.0079229999999999
313.99999999999994,-0.006469
314.1999999999999,-0.0054119999999999
314.3999999999999,-0.0038599999999999
314.6,-0.004356
314.7999999999999,-0.0060229999999998
314.99999999999994,-0.0052579999999999
315.1999999999999,-0.0011889999999998
315.3999999999999,0.003991
315.6,0.007106
315.7999999999999,0.0072309999999999
315.99999999999994,0.0047380000000001
316.1999999999999,-0.0006219999999999
316.3999999999999,-0.0079389999999999
316.6,-0.01367
316.7999999999999,-0.0152799999999999
316.99999999999994,-0.012979
317.1999999999999,-0.0107619999999999
317.3999999999999,-0.0078579999999999
317.6,-0.005022
317.7999999999999,-0.0026109999999999
317.99999999999994,-0.002642
318.1999999999999,-0.0020519999999999
318.3999999999999,-0.0022899999999999
318.6,-0.0024459999999999
318.7999999999999,-0.002831
318.99999999999994,-0.00191
319.1999999999999,-0.00095
319.3999999999999,-0.00252
319.6,-0.003238
319.7999999999999,-0.0027779999999999
319.99999999999994,-0.0043569999999999
320.1999999999999,-0.0059549999999999
320.3999999999999,-0.006183
320.6,-0.005924
320.7999999999999,-0.0065239999999999
320.99999999999994,-0.0079039999999999
321.1999999999999,-0.0099299999999999
321.3999999999999,-0.0111829999999999
321.6,-0.012162
321.7999999999999,-0.0122679999999999
321.99999999999994,-0.0104789999999999
322.1999999999999,-0.0066679999999998
322.3999999999999,-0.0020959999999998
322.6,-0.000639
322.7999999999999,2.799999999991698e-05
322.99999999999994,-5.6000000000056005e-05
323.1999999999999,-0.0014769999999999
323.3999999999999,-0.003252
323.6,-0.003057
323.7999999999999,-0.003001
323.99999999999994,-0.003929
324.1999999999999,-0.0048319999999999
324.3999999999999,-0.007117
324.6,-0.0093429999999998
324.7999999999999,-0.0129699999999999
324.99999999999994,-0.014245
325.1999999999999,-0.0143929999999998
325.3999999999999,-0.0114199999999999
325.6,-0.008483
325.7999999999999,-0.006224
325.99999999999994,-0.0048409999999998
326.1999999999999,-0.005257
326.3999999999999,-0.0067599999999998
326.6,-0.0061149999999998
326.7999999999999,-0.0041929999999998
326.99999999999994,-0.0030539999999998
327.1999999999999,-0.0021919999999999
327.3999999999999,-0.0008479999999999
327.6,-0.0023249999999999
327.7999999999999,-0.0031969999999998
327.99999999999994,-0.004356
328.1999999999999,-0.0057339999999999
328.3999999999999,-0.009079
328.6,-0.0093959999999999
328.7999999999999,-0.0084269999999999
328.99999999999994,-0.007506
329.1999999999999,-0.0071959999999999
329.3999999999999,-0.0051809999999998
329.6,-0.0047049999999999
329.7999999999999,-0.005335
329.99999999999994,-0.0079879999999998
330.1999999999999,-0.007819
330.3999999999999,-0.007946
330.6,-0.0062249999999999
330.7999999999999,-0.0049069999999999
330.99999999999994,-0.0026479999999999
331.1999999999999,-0.0026219999999999
331.3999999999999,-0.0033049999999998
331.6,-0.004758
331.7999999999999,-0.008801
331.99999999999994,-0.0110609999999999
332.1999999999999,-0.0119409999999999
332.3999999999999,-0.0130589999999999
332.6,-0.013185
332.7999999999999,-0.0112429999999998
332.99999999999994,-0.0094909999999999
333.1999999999999,-0.008712
333.3999999999999,-0.0069299999999998
333.6,-0.009314
333.7999999999999,-0.0108779999999999
333.99999999999994,-0.011247
334.1999999999999,-0.0103359999999999
334.3999999999999,-0.0105169999999998
334.6,-0.00973
334.7999999999999,-0.0098009999999999
334.99999999999994,-0.0105239999999999
335.1999999999999,-0.0122329999999999
335.3999999999999,-0.0129529999999999
335.6,-0.0126349999999999
335.7999999999999,-0.0128059999999998
335.99999999999994,-0.0147699999999999
336.1999999999999,-0.0162009999999999
336.3999999999999,-0.0160329999999999
336.6,-0.016429
336.7999999999999,-0.0157
336.99999999999994,-0.0154509999999998
337.1999999999999,-0.0161329999999999
337.3999999999999,-0.017401
337.6,-0.0170829999999999
337.7999999999999,-0.0145569999999999
337.99999999999994,-0.0129759999999998
338.1999999999999,-0.0096249999999999
338.3999999999999,-0.009336
338.6,-0.0078629999999999
338.7999999999999,-0.0097689999999999
338.99999999999994,-0.006388
339.1999999999999,-0.005039
339.3999999999999,-0.0011049999999999
339.6,-0.0008489999999998
339.7999999999999,0.001708
339.99999999999994,0.00058
340.1999999999999,-0.0006949999999998
340.3999999999999,-0.0033879999999999
340.6,-0.004666
340.7999999999999,-0.0069509999999999
340.99999999999994,-0.009344
341.1999999999999,-0.0100359999999999
341.3999999999999,-0.0097309999999999
341.6,-0.0101299999999999
341.7999999999999,-0.0110539999999998
341.99999999999994,-0.010866
342.1999999999999,-0.0088429999999999
342.3999999999999,-0.006793
342.6,-0.005128
342.7999999999999,-0.00384
342.99999999999994,-0.003252
343.1999999999999,-0.006709
343.3999999999999,-0.0099059999999999
343.6,-0.012269
343.7999999999999,-0.0154369999999999
343.99999999999994,-0.017187
344.1999999999999,-0.0178019999999998
344.3999999999999,-0.0176209999999998
344.6,-0.0183089999999999
344.7999999999999,-0.0170109999999998
344.99999999999994,-0.0163029999999999
345.1999999999999,-0.0143119999999998
345.3999999999999,-0.0139499999999999
345.6,-0.0105789999999998
345.7999999999999,-0.0070729999999998
345.99999999999994,-0.002156
346.1999999999999,-0.0009129999999999
346.3999999999999,0.0002740000000001
346.6,-0.0004089999999998
346.7999999999999,-0.0013259999999999
346.99999999999994,-0.005063
347.1999999999999,-0.006747
347.3999999999999,-0.0081219999999999
347.6,-0.008734
347.7999999999999,-0.008847
347.99999999999994,-0.009022
348.1999999999999,-0.0079599999999999
348.3999999999999,-0.0076469999999999
348.6,-0.0075739999999999
348.7999999999999,-0.0077799999999998
348.99999999999994,-0.006636
349.1999999999999,-0.007546
349.3999999999999,-0.007932
349.6,-0.008526
349.7999999999999,-0.0080139999999999
349.99999999999994,-0.00712
350.1999999999999,-0.0071989999999999
350.3999999999999,-0.0070339999999999
350.6,-0.0080089999999999
350.7999999999999,-0.0105869999999999
350.99999999999994,-0.0138059999999999
351.1999999999999,-0.013676
351.3999999999999,-0.012253
351.6,-0.0108189999999999
351.7999999999999,-0.0107749999999999
351.99999999999994,-0.0118899999999999
352.1999999999999,-0.012747
352.3999999999999,-0.0130799999999999
352.6,-0.0121269999999999
352.7999999999999,-0.0093339999999999
352.99999999999994,-0.005238
353.1999999999999,-0.0034339999999999
353.3999999999999,-0.004936
353.6,-0.0071479999999999
353.7999999999999,-0.010882
353.99999999999994,-0.0114229999999999
354.1999999999999,-0.0116369999999998
354.3999999999999,-0.008672
354.6,-0.0074959999999999
354.7999999999999,-0.0049319999999999
354.99999999999994,-0.006402
355.1999999999999,-0.0064739999999998
355.3999999999999,-0.010002
355.6,-0.0122329999999999
355.7999999999999,-0.0148589999999999
355.99999999999994,-0.016761
356.1999999999999,-0.018569
356.3999999999999,-0.0174099999999999
356.6,-0.015233
356.7999999999999,-0.014906
356.99999999999994,-0.0137069999999999
357.1999999999999,-0.0129569999999998
357.3999999999999,-0.0130799999999999
357.6,-0.013762
357.7999999999999,-0.0128059999999998
357.99999999999994,-0.012461
358.1999999999999,-0.011937
358.3999999999999,-0.0108599999999998
358.6,-0.0087619999999999
358.7999999999999,-0.007802
358.99999999999994,-0.007983
359.1999999999999,-0.009168
359.3999999999999,-0.0083699999999999
359.6,-0.0084049999999999
359.7999999999999,-0.0084819999999998
359.99999999999994,-0.0081039999999998
360.1999999999999,-0.0069589999999999
360.3999999999999,-0.0103549999999998
360.6,-0.0141489999999999
360.7999999999999,-0.0158119999999999
361.0,-0.0161609999999998
361.1999999999999,-0.016691
361.3999999999999,-0.0158289999999998
361.6,-0.014191
361.7999999999999,-0.0119789999999999
362.0,-0.0102329999999999
362.1999999999999,-0.0079339999999998
362.3999999999999,-0.006685
362.6,-0.006715
362.7999999999999,-0.007022
363.0,-0.0068859999999999
363.1999999999999,-0.008855
363.3999999999999,-0.0106859999999999
363.6,-0.013079
363.7999999999999,-0.0155389999999999
364.0,-0.017876
364.1999999999999,-0.017441
364.3999999999999,-0.0161439999999999
364.6,-0.014083
364.7999999999999,-0.0139489999999999
365.0,-0.0131149999999999
365.1999999999999,-0.0126999999999999
365.3999999999999,-0.0121629999999999
365.6,-0.010302
365.7999999999999,-0.0083629999999998
366.0,-0.0082759999999999
366.1999999999999,-0.0100659999999999
366.3999999999999,-0.0120739999999999
366.6,-0.0137259999999999
366.7999999999999,-0.0151909999999999
367.0,-0.0151179999999999
367.1999999999999,-0.0140759999999999
367.3999999999999,-0.01262
367.6,-0.013103
367.7999999999999,-0.012372
368.0,-0.0132349999999998
368.1999999999999,-0.0138579999999999
368.3999999999999,-0.0157579999999999
368.6,-0.015843
368.7999999999999,-0.0155989999999999
369.0,-0.0148179999999999
369.1999999999999,-0.0152259999999999
369.3999999999999,-0.014178
369.6,-0.013889
369.7999999999999,-0.0144979999999999
370.0,-0.0147789999999998
370.1999999999999,-0.0127699999999999
370.3999999999999,-0.00984
370.6,-0.0084059999999999
370.7999999999999,-0.007514
371.0,-0.0086969999999999
371.1999999999999,-0.009897
371.3999999999999,-0.013276
371.6,-0.0147249999999998
371.7999999999999,-0.0151909999999999
372.0,-0.012553
372.1999999999999,-0.0114049999999998
372.3999999999999,-0.009263
372.6,-0.007168
372.7999999999999,-0.005462
373.0,-0.0066519999999998
373.1999999999999,-0.0070989999999999
373.3999999999999,-0.007722
373.6,-0.0077689999999999
373.7999999999999,-0.0079359999999999
374.0,-0.007341
374.1999999999999,-0.0078489999999999
374.3999999999999,-0.0080009999999999
374.6,-0.0095399999999998
374.7999999999999,-0.010788
375.0,-0.0124629999999998
375.1999999999999,-0.013832
375.3999999999999,-0.016272
375.6,-0.018316
375.7999999999999,-0.0189509999999999
376.0,-0.0168409999999998
376.1999999999999,-0.013781
376.3999999999999,-0.0106439999999998
376.6,-0.0093429999999998
376.7999999999999,-0.0111319999999999
377.0,-0.0138039999999999
377.1999999999999,-0.016831
377.3999999999999,-0.018764
377.6,-0.019476
377.7999999999999,-0.0180799999999998
378.0,-0.016777
378.1999999999999,-0.0145969999999999
378.3999999999999,-0.0135879999999999
378.6,-0.0131259999999999
378.7999999999999,-0.0143849999999998
379.0,-0.015803
379.1999999999999,-0.0176899999999999
379.3999999999999,-0.0176929999999999
379.6,-0.0169109999999999
379.7999999999999,-0.0153799999999999
380.0,-0.014718
380.1999999999999,-0.014175
380.3999999999999,-0.0143389999999998
380.6,-0.0136689999999999
380.7999999999999,-0.0132239999999999
381.0,-0.0126839999999999
381.1999999999999,-0.0135589999999998
381.3999999999999,-0.0139029999999999
381.6,-0.0150259999999999
381.7999999999999,-0.0165949999999999
382.0,-0.0189079999999999
382.1999999999999,-0.0209999999999999
382.3999999999999,-0.0219979999999999
382.6,-0.0218559999999998
382.7999999999999,-0.0194579999999999
383.0,-0.017228
383.1999999999999,-0.014901
383.3999999999999,-0.014423
383.6,-0.01455
383.7999999999999,-0.0156899999999999
384.0,-0.0145409999999999
384.1999999999999,-0.0138769999999999
384.3999999999999,-0.012728
384.6,-0.0133389999999999
384.7999999999999,-0.013894
385.0,-0.0155629999999999
385.1999999999999,-0.0151019999999999
385.3999999999999,-0.016172
385.6,-0.0140949999999999
385.7999999999999,-0.0126859999999999
386.0,-0.0102349999999999
386.1999999999999,-0.0104329999999999
386.3999999999999,-0.0091419999999999
386.6,-0.0097119999999999
386.7999999999999,-0.0086269999999999
387.0,-0.007565
387.1999999999999,-0.006485
387.3999999999999,-0.007214
387.6,-0.008496
387.7999999999999,-0.011489
388.0,-0.0144729999999999
388.1999999999999,-0.0163159999999999
388.3999999999999,-0.0149109999999998
388.6,-0.014583
388.7999999999999,-0.0137439999999999
389.0,-0.0143709999999999
389.1999999999999,-0.0130649999999998
389.3999999999999,-0.0129489999999998
389.6,-0.0117439999999999
389.7999999999999,-0.011584
390.0,-0.011824
390.1999999999999,-0.012745
390.3999999999999,-0.0148129999999999
390.6,-0.01601
390.7999999999999,-0.0154989999999999
391.0,-0.0145079999999999
391.1999999999999,-0.0137089999999999
391.3999999999999,-0.013746
391.6,-0.0134719999999999
391.7999999999999,-0.0120979999999999
392.0,-0.0113929999999999
392.1999999999999,-0.010979
392.3999999999999,-0.0115769999999999
392.6,-0.0124629999999998
392.7999999999999,-0.0137439999999999
393.0,-0.0137279999999999
393.1999999999999,-0.013622
393.3999999999999,-0.0128559999999999
393.6,-0.013776
393.7999999999999,-0.015217
394.0,-0.0164979999999999
394.1999999999999,-0.0175739999999999
394.3999999999999,-0.0173799999999999
394.6,-0.0166889999999999
394.7999999999999,-0.0168669999999999
395.0,-0.0150379999999998
395.1999999999999,-0.0150559999999999
395.3999999999999,-0.0147889999999999
395.6,-0.0141119999999999
395.7999999999999,-0.012909
396.0,-0.0148019999999999
396.1999999999999,-0.0145629999999998
396.3999999999999,-0.013112
396.6,-0.011584
396.7999999999999,-0.0103869999999999
397.0,-0.007614
397.1999999999999,-0.0073959999999999
397.3999999999999,-0.0096169999999999
397.6,-0.011883
397.7999999999999,-0.0138089999999999
398.0,-0.0174179999999999
398.1999999999999,-0.0199099999999998
398.3999999999999,-0.0214349999999998
398.6,-0.02041
398.7999999999999,-0.0188409999999998
399.0,-0.0155089999999999
399.1999999999999,-0.0129759999999998
399.3999999999999,-0.0115229999999999
399.6,-0.0138549999999999
399.7999999999999,-0.017954
400.0,-0.020796
400.1999999999999,-0.02275
400.3999999999999,-0.0225859999999999
400.6,-0.0212459999999998
400.7999999999999,-0.0197719999999999
401.0,-0.020537
401.1999999999999,-0.02105
401.3999999999999,-0.0222419999999998
401.6,-0.021125
401.7999999999999,-0.017795
402.0,-0.01452
402.1999999999999,-0.014102
402.3999999999999,-0.0144109999999999
402.6,-0.016521
402.7999999999999,-0.0185029999999999
403.0,-0.0177099999999998
403.1999999999999,-0.012383
403.3999999999999,-0.006329
403.6,-0.003349
403.7999999999999,-0.0036059999999999
404.0,-0.0087859999999999
404.1999999999999,-0.0152589999999999
404.3999999999999,-0.0228919999999999
404.6,-0.026556
404.7999999999999,-0.026769
405.0,-0.0253939999999999
405.1999999999999,-0.023889
405.3999999999999,-0.0220499999999999
405.6,-0.0203979999999999
405.7999999999999,-0.0202459999999999
406.0,-0.0177009999999999
406.1999999999999,-0.0164569999999999
406.3999999999999,-0.0164199999999998
406.6,-0.016639
406.7999999999999,-0.0169919999999998
407.0,-0.0199139999999999
407.1999999999999,-0.022518
407.3999999999999,-0.021706
407.6,-0.022723
407.7999999999999,-0.0239229999999999
408.0,-0.023668
408.1999999999999,-0.023614
408.3999999999999,-0.022766
408.6,-0.0194529999999999
408.7999999999999,-0.0160899999999999
409.0,-0.0138469999999999
409.1999999999999,-0.0130809999999998
409.3999999999999,-0.0126439999999998
409.6,-0.011848
409.7999999999999,-0.0120519999999999
410.0,-0.0118009999999999
410.1999999999999,-0.010297
410.3999999999999,-0.010715
410.6,-0.0122759999999999
410.7999999999999,-0.0142979999999999
411.0,-0.016291
411.1999999999999,-0.0166759999999999
411.3999999999999,-0.017652
411.6,-0.0189989999999999
411.7999999999999,-0.0166599999999998
412.0,-0.013363
412.1999999999999,-0.0103119999999998
412.3999999999999,-0.009074
412.6,-0.0088909999999999
412.7999999999999,-0.0099709999999999
413.0,-0.0126709999999998
413.1999999999999,-0.01546
413.3999999999999,-0.014696
413.6,-0.013112
413.7999999999999,-0.012604
414.0,-0.0132809999999998
414.1999999999999,-0.0126299999999999
414.3999999999999,-0.0137
414.6,-0.0148919999999999
414.7999999999999,-0.014529
415.0,-0.013109
415.1999999999999,-0.012415
415.3999999999999,-0.012045
415.6,-0.012723
415.7999999999999,-0.0149079999999999
416.0,-0.0160789999999999
416.1999999999999,-0.017015
416.3999999999999,-0.0187189999999999
416.6,-0.018356
416.7999999999999,-0.018469
417.0,-0.018901
417.1999999999999,-0.019954
417.3999999999999,-0.0186709999999998
417.6,-0.018348
417.7999999999999,-0.018394
418.0,-0.0183999999999999
418.1999999999999,-0.018
418.3999999999999,-0.0159629999999999
418.6,-0.0133559999999999
418.7999999999999,-0.01363
419.0,-0.014294
419.1999999999999,-0.0155369999999999
419.3999999999999,-0.01871
419.6,-0.0217639999999998
419.7999999999999,-0.0214469999999999
420.0,-0.020458
420.1999999999999,-0.0195629999999999
420.3999999999999,-0.0203249999999999
420.6,-0.0217709999999999
420.7999999999999,-0.0231179999999999
421.0,-0.025282
421.1999999999999,-0.0248999999999999
421.3999999999999,-0.0233659999999999
421.6,-0.02092
421.7999999999999,-0.0203569999999999
422.0,-0.0202409999999999
422.1999999999999,-0.023735
422.3999999999999,-0.027025
422.6,-0.029806
422.7999999999999,-0.0294959999999999
423.0,-0.028531
423.1999999999999,-0.025252
423.3999999999999,-0.0210259999999999
423.6,-0.0155479999999998
423.7999999999999,-0.011994
424.0,-0.010161
424.1999999999999,-0.0106669999999999
424.3999999999999,-0.011762
424.6,-0.0146139999999999
424.7999999999999,-0.0168289999999999
425.0,-0.018629
425.1999999999999,-0.0200839999999999
425.3999999999999,-0.023563
425.6,-0.0256909999999999
425.7999999999999,-0.027301
426.0,-0.0273419999999999
426.1999999999999,-0.026863
426.3999999999999,-0.025536
426.6,-0.0250649999999998
426.7999999999999,-0.023455
427.0,-0.0219119999999999
427.1999999999999,-0.0184029999999999
427.3999999999999,-0.014215
427.6,-0.0109079999999999
427.7999999999999,-0.0112429999999998
428.0,-0.011206
428.1999999999999,-0.014161
428.3999999999999,-0.015638
428.6,-0.017997
428.7999999999999,-0.017603
429.0,-0.0176589999999998
429.1999999999999,-0.0180279999999999
429.3999999999999,-0.019292
429.6,-0.0200879999999998
429.7999999999999,-0.0218359999999999
430.0,-0.0239899999999999
430.1999999999999,-0.0249319999999999
430.3999999999999,-0.0261569999999999
430.6,-0.027571
430.7999999999999,-0.0265509999999999
431.0,-0.0259419999999999
431.1999999999999,-0.023749
431.3999999999999,-0.023069
431.6,-0.0191909999999999
431.7999999999999,-0.017425
432.0,-0.0143999999999999
432.1999999999999,-0.0135479999999998
432.3999999999999,-0.0113669999999999
432.6,-0.0128209999999999
432.7999999999999,-0.014113
433.0,-0.0152589999999999
433.1999999999999,-0.0151719999999999
433.3999999999999,-0.0154659999999999
433.6,-0.0152669999999999
433.7999999999999,-0.0137899999999999
434.0,-0.014067
434.1999999999999,-0.015973
434.3999999999999,-0.0174879999999999
434.6,-0.0168559999999999
434.7999999999999,-0.0166709999999998
435.0,-0.015042
435.1999999999999,-0.013662
435.3999999999999,-0.0133699999999998
435.6,-0.016027
435.7999999999999,-0.0188379999999999
436.0,-0.0224439999999999
436.1999999999999,-0.0246889999999999
436.3999999999999,-0.0254889999999998
436.6,-0.025301
436.7999999999999,-0.0236609999999999
437.0,-0.018936
437.1999999999999,-0.017055
437.3999999999999,-0.0176549999999999
437.6,-0.018834
437.7999999999999,-0.0216939999999998
438.0,-0.0258849999999999
438.1999999999999,-0.027187
438.3999999999999,-0.027365
438.6,-0.0254889999999998
438.7999999999999,-0.0233689999999999
439.0,-0.0220299999999999
439.1999999999999,-0.0207109999999999
439.3999999999999,-0.017301
439.6,-0.0146359999999998
439.7999999999999,-0.0134069999999999
440.0,-0.0135099999999999
440.1999999999999,-0.0156739999999999
440.3999999999999,-0.0197609999999999
440.6,-0.0234099999999999
440.7999999999999,-0.025427
441.0,-0.027222
441.1999999999999,-0.024394
441.3999999999999,-0.0219389999999999
441.6,-0.0203869999999999
441.7999999999999,-0.0189639999999999
442.0,-0.0167969999999999
442.1999999999999,-0.0183429999999999
442.3999999999999,-0.0198449999999998
442.6,-0.021201
442.7999999999999,-0.0216959999999999
443.0,-0.0215509999999998
443.1999999999999,-0.019066
443.3999999999999,-0.016075
443.6,-0.0138929999999999
443.7999999999999,-0.014526
444.0,-0.0151809999999998
444.1999999999999,-0.0179549999999999
444.3999999999999,-0.0210909999999999
444.6,-0.0234879999999999
444.7999999999999,-0.0240679999999999
445.0,-0.0244569999999999
445.1999999999999,-0.024218
445.3999999999999,-0.0226439999999998
445.6,-0.0210639999999999
445.7999999999999,-0.020709
446.0,-0.022378
446.1999999999999,-0.0245949999999999
446.3999999999999,-0.0252159999999999
446.6,-0.025312
446.7999999999999,-0.024872
447.0,-0.0242499999999998
447.1999999999999,-0.0219039999999999
447.3999999999999,-0.021025
447.6,-0.0189019999999999
447.7999999999999,-0.0192149999999999
448.0,-0.01763
448.1999999999999,-0.017708
448.3999999999999,-0.0190569999999998
448.6,-0.0232289999999999
448.7999999999999,-0.0245469999999998
449.0,-0.024626
449.1999999999999,-0.0237959999999999
449.3999999999999,-0.0220469999999999
449.6,-0.0205899999999998
449.7999999999999,-0.019681
450.0,-0.0212749999999999
450.1999999999999,-0.021193
450.3999999999999,-0.0229559999999999
450.6,-0.0230109999999998
450.7999999999999,-0.0241869999999999
451.0,-0.0248479999999999
451.1999999999999,-0.0264199999999998
451.3999999999999,-0.0273239999999999
451.6,-0.027125
451.7999999999999,-0.0265819999999998
452.0,-0.0266979999999998
452.1999999999999,-0.026912
452.3999999999999,-0.0239359999999999
452.6,-0.0227679999999999
452.7999999999999,-0.0212909999999999
453.0,-0.0192829999999999
453.1999999999999,-0.0183579999999998
453.3999999999999,-0.0187679999999998
453.6,-0.0194429999999998
453.7999999999999,-0.0189999999999999
454.0,-0.018602
454.1999999999999,-0.0170349999999999
454.3999999999999,-0.016375
454.6,-0.0151609999999999
454.7999999999999,-0.014353
455.0,-0.015476
455.1999999999999,-0.0179249999999999
455.3999999999999,-0.01919
455.6,-0.019068
455.7999999999999,-0.0200139999999999
456.0,-0.0205429999999999
456.1999999999999,-0.020397
456.3999999999999,-0.0198639999999998
456.6,-0.02038
456.7999999999999,-0.021001
457.0,-0.017552
457.1999999999999,-0.01448
457.3999999999999,-0.0139869999999999
457.6,-0.0173859999999999
457.7999999999999,-0.0186709999999998
458.0,-0.0224779999999999
458.1999999999999,-0.024572
458.3999999999999,-0.0274769999999999
458.6,-0.0280899999999999
458.7999999999999,-0.0278039999999999
459.0,-0.027031
459.1999999999999,-0.0282439999999999
459.3999999999999,-0.0260409999999999
459.6,-0.0226349999999999
459.7999999999999,-0.0204789999999999
460.0,-0.0192699999999999
460.1999999999999,-0.0188459999999999
460.3999999999999,-0.0207599999999998
460.6,-0.0221649999999999
460.7999999999999,-0.0250079999999999
461.0,-0.0271669999999999
461.1999999999999,-0.0249889999999999
461.3999999999999,-0.0226599999999999
461.6,-0.0214259999999999
461.7999999999999,-0.0189909999999999
462.0,-0.018
462.1999999999999,-0.0218549999999999
462.3999999999999,-0.0252879999999999
462.6,-0.027811
462.7999999999999,-0.0313769999999999
463.0,-0.033803
463.1999999999999,-0.0341499999999999
463.3999999999999,-0.032154
463.6,-0.0296259999999999
463.7999999999999,-0.0276279999999999
464.0,-0.025746
464.1999999999999,-0.025773
464.3999999999999,-0.028105
464.6,-0.0291839999999998
464.7999999999999,-0.0284599999999999
465.0,-0.028343
465.1999999999999,-0.0270649999999998
465.3999999999999,-0.0237009999999999
465.6,-0.0233159999999998
465.7999999999999,-0.0240069999999998
466.0,-0.024013
466.1999999999999,-0.021508
466.3999999999999,-0.0210489999999998
466.6,-0.0187209999999999
466.7999999999999,-0.0183329999999999
467.0,-0.0188559999999999
467.1999999999999,-0.020872
467.3999999999999,-0.023039
467.6,-0.0254579999999999
467.7999999999999,-0.0251509999999999
468.0,-0.0218929999999999
468.1999999999999,-0.020302
468.3999999999999,-0.0197309999999999
468.6,-0.02271
468.7999999999999,-0.0236669999999998
469.0,-0.0269289999999999
469.1999999999999,-0.030048
469.3999999999999,-0.0296609999999999
469.6,-0.026888
469.7999999999999,-0.0259679999999999
470.0,-0.0251209999999999
470.1999999999999,-0.0261689999999998
470.3999999999999,-0.02923
470.6,-0.0300439999999999
470.7999999999999,-0.0293639999999999
471.0,-0.026809
471.1999999999999,-0.0215039999999999
471.3999999999999,-0.0176669999999998
471.6,-0.018459
471.7999999999999,-0.0205279999999998
472.0,-0.0222149999999998
472.1999999999999,-0.0240739999999999
472.3999999999999,-0.0249029999999998
472.6,-0.022032
472.7999999999999,-0.019965
473.0,-0.0198559999999998
473.1999999999999,-0.0201869999999999
473.3999999999999,-0.0202519999999999
473.6,-0.024013
473.7999999999999,-0.026985
474.0,-0.0294349999999998
474.1999999999999,-0.0293209999999999
474.3999999999999,-0.0270589999999999
474.6,-0.021441
474.7999999999999,-0.017832
475.0,-0.0158719999999998
475.1999999999999,-0.016475
475.3999999999999,-0.018917
475.6,-0.0231149999999999
475.7999999999999,-0.0249989999999999
476.0,-0.0260579999999999
476.1999999999999,-0.026378
476.3999999999999,-0.0263839999999999
476.6,-0.024278
476.7999999999999,-0.0241569999999999
477.0,-0.0225859999999999
477.1999999999999,-0.0235909999999999
477.3999999999999,-0.02489
477.6,-0.0269219999999998
477.7999999999999,-0.0289459999999999
478.0,-0.032205
478.1999999999999,-0.032912
478.3999999999999,-0.0323229999999998
478.6,-0.0297039999999999
478.7999999999999,-0.0260059999999999
479.0,-0.0241309999999999
479.1999999999999,-0.0226699999999999
479.3999999999999,-0.022153
479.6,-0.0238519999999999
479.7999999999999,-0.025393
480.0,-0.0257
480.1999999999999,-0.026823
480.3999999999999,-0.0286109999999999
480.6,-0.0314429999999998
480.7999999999999,-0.034062
481.0,-0.0340929999999999
481.1999999999999,-0.0316669999999998
481.3999999999999,-0.0286169999999998
481.6,-0.0268539999999999
481.7999999999999,-0.0254559999999999
482.0,-0.0244269999999999
482.1999999999999,-0.025004
482.3999999999999,-0.024917
482.6,-0.0243379999999999
482.7999999999999,-0.0235179999999999
483.0,-0.027471
483.1999999999999,-0.0319519999999999
483.3999999999999,-0.0348999999999999
483.6,-0.033563
483.7999999999999,-0.03156
484.0,-0.0280359999999999
484.1999999999999,-0.023652
484.3999999999999,-0.023258
484.6,-0.0241919999999999
484.7999999999999,-0.0266759999999999
485.0,-0.0266519999999998
485.1999999999999,-0.0268539999999999
485.3999999999999,-0.0241789999999999
485.6,-0.0218899999999999
485.7999999999999,-0.020648
486.0,-0.0216419999999999
486.1999999999999,-0.0202489999999999
486.3999999999999,-0.0191989999999999
486.6,-0.0200299999999999
486.7999999999999,-0.0229329999999998
487.0,-0.023776
487.1999999999999,-0.0271539999999999
487.3999999999999,-0.0296509999999998
487.6,-0.0315079999999998
487.7999999999999,-0.0293719999999999
488.0,-0.02845
488.1999999999999,-0.0285929999999998
488.3999999999999,-0.0314539999999998
488.6,-0.0331189999999999
488.7999999999999,-0.0335959999999999
489.0,-0.0332099999999999
489.1999999999999,-0.0304839999999999
489.3999999999999,-0.0272529999999999
489.6,-0.0249989999999999
489.7999999999999,-0.0227969999999999
490.0,-0.018442
490.1999999999999,-0.0161
490.3999999999999,-0.0157179999999999
490.6,-0.0158789999999999
490.7999999999999,-0.0196669999999998
491.0,-0.025368
491.1999999999999,-0.0303269999999999
491.3999999999999,-0.0320629999999999
491.6,-0.033398
491.7999999999999,-0.0331539999999999
492.0,-0.032675
492.1999999999999,-0.032599
492.3999999999999,-0.0316129999999998
492.6,-0.0317669999999998
492.7999999999999,-0.0326509999999999
493.0,-0.0344519999999999
493.1999999999999,-0.0347279999999998
493.3999999999999,-0.036186
493.6,-0.035069
493.7999999999999,-0.032785
494.0,-0.0315849999999999
494.1999999999999,-0.0306279999999998
494.3999999999999,-0.0304979999999999
494.6,-0.0297609999999999
494.7999999999999,-0.029244
495.0,-0.0292919999999998
495.1999999999999,-0.0299949999999999
495.3999999999999,-0.0292829999999999
495.6,-0.0284979999999999
495.7999999999999,-0.0277629999999999
496.0,-0.0268249999999998
496.1999999999999,-0.0272019999999999
496.3999999999999,-0.0284169999999999
496.6,-0.0308379999999999
496.7999999999999,-0.0334509999999999
497.0,-0.0343089999999999
497.1999999999999,-0.033784
497.3999999999999,-0.0323649999999999
497.6,-0.029949
497.7999999999999,-0.026402
498.0,-0.0238119999999999
498.1999999999999,-0.0207169999999998
498.3999999999999,-0.021166
498.6,-0.0230639999999999
498.7999999999999,-0.0264709999999999
499.0,-0.029751
499.1999999999999,-0.0319869999999999
499.3999999999999,-0.031514
499.6,-0.0281929999999999
499.7999999999999,-0.0244649999999999
500.0,-0.0196629999999999
500.1999999999999,-0.0161439999999999
500.3999999999999,-0.016099
500.6,-0.019554
500.7999999999999,-0.0207979999999998
501.0,-0.020237
501.1999999999999,-0.020059
501.3999999999999,-0.019832
501.6,-0.0204429999999999
501.7999999999999,-0.021741
502.0,-0.0229699999999999
502.1999999999999,-0.024102
502.3999999999999,-0.0224629999999999
502.6,-0.0210289999999999
502.7999999999999,-0.0210209999999999
503.0,-0.023522
503.1999999999999,-0.0260439999999999
503.3999999999999,-0.0281629999999999
503.6,-0.0284849999999998
503.7999999999999,-0.0292189999999998
504.0,-0.0290099999999999
504.1999999999999,-0.0299009999999999
504.3999999999999,-0.030272
504.6,-0.028952
504.7999999999999,-0.026532
505.0,-0.0252999999999998
505.1999999999999,-0.0245569999999999
505.3999999999999,-0.0249699999999999
505.6,-0.0254939999999999
505.7999999999999,-0.0272559999999999
506.0,-0.0280579999999999
506.1999999999999,-0.027333
506.3999999999999,-0.0270179999999999
506.6,-0.0292879999999999
506.7999999999999,-0.0301029999999999
507.0,-0.031503
507.1999999999999,-0.0309399999999999
507.3999999999999,-0.031195
507.6,-0.030799
507.7999999999999,-0.033625
508.0,-0.0346469999999998
508.1999999999999,-0.0366739999999998
508.3999999999999,-0.0353179999999999
508.6,-0.033835
508.7999999999999,-0.0290749999999999
509.0,-0.0256359999999999
509.1999999999999,-0.024013
509.3999999999999,-0.0260759999999999
509.6,-0.0282029999999999
509.7999999999999,-0.02977
510.0,-0.0326429999999999
510.1999999999998,-0.033266
510.3999999999999,-0.0319199999999999
510.5999999999999,-0.029671
510.79999999999984,-0.029206
510.9999999999999,-0.0282309999999998
511.1999999999997,-0.028118
511.39999999999975,-0.0281469999999999
511.5999999999998,-0.0291859999999999
511.79999999999984,-0.029876
511.9999999999999,-0.0314209999999999
512.1999999999997,-0.0344499999999998
512.3999999999997,-0.036461
512.5999999999998,-0.0372079999999999
512.7999999999998,-0.0367079999999999
512.9999999999999,-0.0348459999999999
513.1999999999997,-0.0305699999999999
513.3999999999997,-0.0288029999999999
513.5999999999998,-0.028051
513.7999999999998,-0.0283329999999999
513.9999999999999,-0.027948
514.1999999999997,-0.0308139999999998
514.3999999999997,-0.0311289999999999
514.5999999999998,-0.030831
514.7999999999998,-0.028054
514.9999999999999,-0.025638
515.1999999999997,-0.0224889999999999
515.3999999999997,-0.0226759999999999
515.5999999999998,-0.0241899999999999
515.7999999999998,-0.0260679999999999
515.9999999999999,-0.0281419999999998
516.1999999999997,-0.0269889999999999
516.3999999999997,-0.0233849999999999
516.5999999999998,-0.0218419999999999
516.7999999999998,-0.0241329999999999
516.9999999999999,-0.0248639999999999
517.1999999999997,-0.0263279999999999
517.3999999999997,-0.02803
517.5999999999998,-0.0281229999999998
517.7999999999998,-0.025195
517.9999999999999,-0.0230299999999998
518.1999999999997,-0.022307
518.3999999999997,-0.022882
518.5999999999998,-0.0231699999999999
518.7999999999998,-0.025989
518.9999999999999,-0.028345
519.1999999999997,-0.030869
519.3999999999997,-0.0322009999999999
519.5999999999998,-0.032227
519.7999999999998,-0.0274419999999999
519.9999999999999,-0.023441
520.1999999999997,-0.0212069999999999
520.3999999999997,-0.023506
520.5999999999998,-0.023913
520.7999999999998,-0.0274589999999999
520.9999999999999,-0.0294339999999999
521.1999999999997,-0.0306889999999999
521.3999999999997,-0.0281529999999998
521.5999999999998,-0.0279519999999999
521.7999999999998,-0.028254
521.9999999999999,-0.0295199999999999
522.1999999999997,-0.030051
522.3999999999997,-0.0304549999999999
522.5999999999998,-0.030429
522.7999999999998,-0.030664
522.9999999999999,-0.030963
523.1999999999997,-0.031168
523.3999999999997,-0.0303689999999998
523.5999999999998,-0.030345
523.7999999999998,-0.02939
523.9999999999999,-0.0290449999999999
524.1999999999997,-0.028915
524.3999999999997,-0.028477
524.5999999999998,-0.0286999999999999
524.7999999999998,-0.027622
524.9999999999999,-0.0270219999999998
525.1999999999997,-0.025946
525.3999999999997,-0.0248129999999999
525.5999999999998,-0.022459
525.7999999999998,-0.02312
525.9999999999999,-0.023657
526.1999999999997,-0.0240529999999998
526.3999999999997,-0.0257179999999999
526.5999999999998,-0.026621
526.7999999999998,-0.0271289999999999
526.9999999999999,-0.0281689999999998
527.1999999999997,-0.0301959999999998
527.3999999999997,-0.0326759999999999
527.5999999999998,-0.0375939999999999
527.7999999999998,-0.041468
527.9999999999999,-0.043134
528.1999999999997,-0.0408699999999999
528.3999999999997,-0.037773
528.5999999999998,-0.0350079999999999
528.7999999999998,-0.0326199999999998
528.9999999999999,-0.032135
529.1999999999997,-0.0331779999999999
529.3999999999997,-0.0334309999999999
529.5999999999998,-0.0307159999999999
529.7999999999998,-0.027752
529.9999999999999,-0.0256449999999999
530.1999999999997,-0.025981
530.3999999999997,-0.0278609999999999
530.5999999999998,-0.029625
530.7999999999998,-0.0307809999999999
530.9999999999999,-0.0304519999999999
531.1999999999997,-0.0296849999999999
531.3999999999997,-0.0269479999999999
531.5999999999998,-0.0261849999999999
531.7999999999998,-0.026075
531.9999999999999,-0.0273829999999999
532.1999999999997,-0.028397
532.3999999999997,-0.0311999999999998
532.5999999999998,-0.0309019999999999
532.7999999999998,-0.030548
532.9999999999999,-0.0309669999999999
533.1999999999997,-0.0311909999999999
533.3999999999997,-0.0291079999999999
533.5999999999998,-0.02841
533.7999999999998,-0.0260869999999999
533.9999999999999,-0.0239789999999999
534.1999999999997,-0.0219499999999999
534.3999999999997,-0.022674
534.5999999999998,-0.0253159999999998
534.7999999999998,-0.030602
534.9999999999999,-0.034383
535.1999999999997,-0.037071
535.3999999999997,-0.037163
535.5999999999998,-0.036256
535.7999999999998,-0.0352189999999998
535.9999999999999,-0.034777
536.1999999999997,-0.0334799999999999
536.3999999999997,-0.033482
536.5999999999998,-0.031446
536.7999999999998,-0.0306979999999998
536.9999999999999,-0.0306049999999999
537.1999999999997,-0.0313889999999998
537.3999999999997,-0.0313499999999999
537.5999999999998,-0.0307749999999999
537.7999999999998,-0.0278339999999999
537.9999999999999,-0.023106
538.1999999999997,-0.0205869999999999
538.3999999999997,-0.0197639999999998
538.5999999999998,-0.0226129999999999
538.7999999999998,-0.0262189999999999
538.9999999999999,-0.0292499999999999
539.1999999999997,-0.0321179999999998
539.3999999999997,-0.033366
539.5999999999998,-0.0347029999999999
539.7999999999998,-0.034715
539.9999999999999,-0.0361229999999999
540.1999999999997,-0.0338929999999999
540.3999999999997,-0.0343269999999999
540.5999999999998,-0.0349729999999999
540.7999999999998,-0.036575
540.9999999999999,-0.0352589999999999
541.1999999999997,-0.0351799999999999
541.3999999999997,-0.0348489999999999
541.5999999999998,-0.0346219999999999
541.7999999999998,-0.0343119999999999
541.9999999999999,-0.03569
542.1999999999997,-0.0367699999999999
542.3999999999997,-0.037387
542.5999999999998,-0.0355829999999999
542.7999999999998,-0.0338039999999999
542.9999999999999,-0.0311749999999999
543.1999999999997,-0.0302869999999999
543.3999999999997,-0.0299019999999998
543.5999999999998,-0.0297099999999999
543.7999999999998,-0.0291539999999999
543.9999999999999,-0.0295799999999999
544.1999999999997,-0.0296739999999999
544.3999999999997,-0.0273319999999999
544.5999999999998,-0.025657
544.7999999999998,-0.0246159999999999
544.9999999999999,-0.023624
545.1999999999997,-0.0218899999999999
545.3999999999997,-0.02123
545.5999999999998,-0.024364
545.7999999999998,-0.0263389999999998
545.9999999999999,-0.028194
546.1999999999997,-0.032259
546.3999999999997,-0.035309
546.5999999999998,-0.0340759999999999
546.7999999999998,-0.0335179999999999
546.9999999999999,-0.0330479999999999
547.1999999999997,-0.030013
547.3999999999997,-0.028583
547.5999999999998,-0.0306059999999999
547.7999999999998,-0.033779
547.9999999999999,-0.0375849999999999
548.1999999999997,-0.040027
548.3999999999997,-0.0410369999999999
548.5999999999998,-0.0391479999999999
548.7999999999998,-0.037298
548.9999999999999,-0.034567
549.1999999999997,-0.035258
549.3999999999997,-0.0357829999999999
549.5999999999998,-0.036275
549.7999999999998,-0.0350539999999999
549.9999999999999,-0.035228
550.1999999999997,-0.032704
550.3999999999997,-0.033079
550.5999999999998,-0.0319709999999999
550.7999999999998,-0.0316
550.9999999999999,-0.0294339999999999
551.1999999999997,-0.030297
551.3999999999997,-0.0298629999999999
551.5999999999998,-0.0295699999999998
551.7999999999998,-0.028809
551.9999999999999,-0.029927
552.1999999999997,-0.030575
552.3999999999997,-0.0298529999999999
552.5999999999998,-0.0289919999999999
552.7999999999998,-0.0289839999999999
552.9999999999999,-0.0288459999999999
553.1999999999997,-0.0270319999999999
553.3999999999997,-0.026059
553.5999999999998,-0.027179
553.7999999999998,-0.0284379999999999
553.9999999999999,-0.027363
554.1999999999997,-0.0271349999999999
554.3999999999997,-0.0276939999999998
554.5999999999998,-0.028146
554.7999999999998,-0.0273149999999999
554.9999999999999,-0.028199
555.1999999999997,-0.028559
555.3999999999997,-0.0299989999999998
555.5999999999998,-0.0312909999999999
555.7999999999998,-0.031754
555.9999999999999,-0.032167
556.1999999999997,-0.031179
556.3999999999997,-0.0290719999999999
556.5999999999998,-0.0272319999999999
556.7999999999998,-0.027649
556.9999999999999,-0.0271589999999999
557.1999999999997,-0.0282109999999999
557.3999999999997,-0.0306859999999999
557.5999999999998,-0.032569
557.7999999999998,-0.03197
557.9999999999999,-0.0327269999999999
558.1999999999997,-0.03204
558.3999999999997,-0.0315529999999999
558.5999999999998,-0.0325379999999999
558.7999999999998,-0.0353639999999999
558.9999999999999,-0.0356509999999998
559.1999999999997,-0.0361959999999998
559.3999999999997,-0.0352399999999999
559.5999999999998,-0.0340609999999999
559.7999999999998,-0.0339339999999999
559.9999999999999,-0.0356989999999999
560.1999999999997,-0.0402389999999999
560.3999999999997,-0.042488
560.5999999999998,-0.042853
560.7999999999998,-0.040548
560.9999999999999,-0.037957
561.1999999999997,-0.033725
561.3999999999997,-0.0307629999999998
561.5999999999998,-0.029473
561.7999999999998,-0.03041
561.9999999999999,-0.0320819999999999
562.1999999999997,-0.0346219999999999
562.3999999999997,-0.0360449999999998
562.5999999999998,-0.0370099999999999
562.7999999999998,-0.034918
562.9999999999999,-0.0344999999999999
563.1999999999997,-0.0350889999999999
563.3999999999997,-0.0364009999999999
563.5999999999998,-0.035913
563.7999999999998,-0.0383409999999999
563.9999999999999,-0.0387999999999999
564.1999999999997,-0.0353449999999999
564.3999999999997,-0.032804
564.5999999999998,-0.0305699999999999
564.7999999999998,-0.0287459999999999
564.9999999999999,-0.0264219999999999
565.1999999999997,-0.0281009999999999
565.3999999999997,-0.0288889999999999
565.5999999999998,-0.03264
565.7999999999998,-0.034434
565.9999999999999,-0.036602
566.1999999999997,-0.0349669999999999
566.3999999999997,-0.0352699999999999
566.5999999999998,-0.03238
566.7999999999998,-0.030785
566.9999999999999,-0.028631
567.1999999999997,-0.0293689999999999
567.3999999999997,-0.029517
567.5999999999998,-0.0330509999999999
567.7999999999998,-0.0340599999999999
567.9999999999999,-0.035287
568.1999999999997,-0.03441
568.3999999999997,-0.031787
568.5999999999998,-0.026175
568.7999999999998,-0.022782
568.9999999999999,-0.020472
569.1999999999997,-0.0216659999999999
569.3999999999997,-0.0211049999999999
569.5999999999998,-0.0220899999999999
569.7999999999998,-0.0229869999999998
569.9999999999999,-0.0226329999999999
570.1999999999997,-0.0212159999999999
570.3999999999997,-0.022958
570.5999999999998,-0.023989
570.7999999999998,-0.025314
570.9999999999999,-0.0277309999999999
571.1999999999997,-0.028915
571.3999999999997,-0.0289219999999998
571.5999999999998,-0.0306569999999999
571.7999999999998,-0.0331989999999999
571.9999999999997,-0.036229
572.1999999999997,-0.0398629999999999
572.3999999999997,-0.0423849999999998
572.5999999999998,-0.042451
572.7999999999998,-0.0393779999999999
572.9999999999997,-0.035236
573.1999999999997,-0.0309829999999999
573.3999999999997,-0.02956
573.5999999999998,-0.0271069999999999
573.7999999999998,-0.027427
573.9999999999997,-0.0282309999999998
574.1999999999997,-0.028529
574.3999999999997,-0.0303279999999999
574.5999999999998,-0.034783
574.7999999999998,-0.03908
574.9999999999997,-0.0415049999999999
575.1999999999997,-0.043393
575.3999999999997,-0.0408479999999999
575.5999999999998,-0.036448
575.7999999999998,-0.0330779999999999
575.9999999999997,-0.0314119999999999
576.1999999999997,-0.0303709999999999
576.3999999999997,-0.0305569999999999
576.5999999999998,-0.033673
576.7999999999998,-0.03326
576.9999999999997,-0.0352529999999999
577.1999999999997,-0.0369839999999999
577.3999999999997,-0.038043
577.5999999999998,-0.0368599999999998
577.7999999999998,-0.0372829999999999
577.9999999999997,-0.0336289999999999
578.1999999999997,-0.0299769999999999
578.3999999999997,-0.0273399999999999
578.5999999999998,-0.0268699999999999
578.7999999999998,-0.027176
578.9999999999997,-0.0304819999999998
579.1999999999997,-0.0345969999999999
579.3999999999997,-0.038273
579.5999999999998,-0.0394749999999999
579.7999999999998,-0.0398129999999998
579.9999999999997,-0.0394849999999999
580.1999999999997,-0.0398209999999998
580.3999999999997,-0.0403149999999998
580.5999999999998,-0.0415769999999999
580.7999999999998,-0.042021
580.9999999999997,-0.0405869999999999
581.1999999999997,-0.0369939999999999
581.3999999999997,-0.032197
581.5999999999998,-0.0277819999999999
581.7999999999998,-0.0249559999999999
581.9999999999997,-0.0231319999999999
582.1999999999997,-0.0237449999999999
582.3999999999997,-0.0274619999999998
582.5999999999998,-0.029644
582.7999999999998,-0.031487
582.9999999999997,-0.0329049999999999
583.1999999999997,-0.032057
583.3999999999997,-0.0296749999999998
583.5999999999998,-0.0285729999999999
583.7999999999998,-0.0291479999999999
583.9999999999997,-0.029212
584.1999999999997,-0.030267
584.3999999999997,-0.029762
584.5999999999998,-0.0304029999999999
584.7999999999998,-0.031549
584.9999999999997,-0.031649
585.1999999999997,-0.0310109999999999
585.3999999999997,-0.032418
585.5999999999998,-0.0326379999999999
585.7999999999998,-0.0304199999999998
585.9999999999997,-0.032172
586.1999999999997,-0.035735
586.3999999999997,-0.039223
586.5999999999998,-0.0408429999999999
586.7999999999998,-0.0416229999999999
586.9999999999997,-0.0399389999999999
587.1999999999997,-0.037258
587.3999999999997,-0.0348439999999998
587.5999999999998,-0.0332749999999999
587.7999999999998,-0.034777
587.9999999999997,-0.0363549999999999
588.1999999999997,-0.0370949999999998
588.3999999999997,-0.035959
588.5999999999998,-0.0366199999999998
588.7999999999998,-0.0362389999999999
588.9999999999997,-0.036756
589.1999999999997,-0.037331
589.3999999999997,-0.0379959999999999
589.5999999999998,-0.037606
589.7999999999998,-0.0378469999999999
589.9999999999997,-0.038715
590.1999999999997,-0.0391939999999999
590.3999999999997,-0.041698
590.5999999999998,-0.044038
590.7999999999998,-0.0448899999999998
590.9999999999997,-0.043503
591.1999999999997,-0.0434589999999999
591.3999999999997,-0.041614
591.5999999999998,-0.040035
591.7999999999998,-0.038923
591.9999999999997,-0.0383869999999999
592.1999999999997,-0.0363789999999999
592.3999999999997,-0.0342739999999999
592.5999999999998,-0.029722
592.7999999999998,-0.025784
592.9999999999997,-0.0225009999999998
593.1999999999997,-0.0254209999999999
593.3999999999997,-0.029719
593.5999999999998,-0.0361789999999999
593.7999999999998,-0.038828
593.9999999999997,-0.040909
594.1999999999997,-0.0396469999999999
594.3999999999997,-0.036942
594.5999999999998,-0.0335
594.7999999999998,-0.032448
594.9999999999997,-0.0332349999999999
595.1999999999997,-0.0316589999999998
595.3999999999997,-0.0299069999999999
595.5999999999998,-0.0294719999999999
595.7999999999998,-0.0315319999999998
595.9999999999997,-0.032926
596.1999999999997,-0.0332889999999999
596.3999999999997,-0.034445
596.5999999999998,-0.0345789999999999
596.7999999999998,-0.0337369999999999
596.9999999999997,-0.0319289999999998
597.1999999999997,-0.0312909999999999
